time (s)	coil I (A)	last det (V)	int current (uC)
403309.334701	3.266561	90.136719	-293.457031
403309.336701	3.267445	90.136719	-293.457031
403309.338704	3.267053	90.136719	-293.457031
403309.340700	3.266977	35.936741	0.546200
403310.482780	3.267436	184.472656	13.964844
403310.484783	3.267337	184.472656	13.964844
403310.486782	3.267086	35.937950	0.896038
403311.431745	3.266390	87.792969	-297.558594
403311.433748	3.267390	87.792969	-297.558594
403311.435747	3.267050	87.792969	-297.558594
403311.437748	3.266948	35.936432	0.472929
403312.545760	3.266267	185.058594	13.671875
403312.547761	3.267429	185.058594	13.671875
403312.549762	3.267040	185.058594	13.671875
403312.551761	3.266928	35.936211	0.335567
403313.495806	3.266168	92.578125	-290.722656
403313.497808	3.267375	92.578125	-290.722656
403313.499808	3.267070	92.578125	-290.722656
403313.501809	3.267006	35.937069	0.542704
403314.641864	3.264423	187.402344	10.351562
403314.643867	3.267068	187.402344	10.351562
403314.645868	3.267317	187.402344	10.351562
403314.647867	3.266919	187.402344	10.351562
403314.649867	3.266878	35.935661	0.315522
403315.593967	2.503007	78.906250	-312.109375
403315.595969	3.267170	78.906250	-312.109375
403315.597970	3.266904	78.906250	-312.109375
403315.599970	3.266767	35.934441	0.673810
403316.740029	3.266248	190.820312	6.152344
403316.742031	3.267385	190.820312	6.152344
403316.744029	3.267067	190.820312	6.152344
403316.746029	3.266977	35.936741	0.336498
403317.692081	3.267343	71.777344	-327.148437
403317.694085	3.267093	71.777344	-327.148437
403317.696083	3.266964	35.936607	0.453152
403318.806144	3.267214	191.503906	8.398437
403318.808146	3.266944	191.503906	8.398437
403318.810146	3.266755	35.934307	0.340550
403319.757120	3.267298	85.449219	-306.152344
403319.759123	3.266921	85.449219	-306.152344
403319.761121	3.266853	35.935387	0.550630
403320.901737	3.266830	194.531250	4.394531
403320.903737	3.267560	194.531250	4.394531
403320.905737	3.267262	194.531250	4.394531
403320.907736	3.267152	35.938675	0.364935
403321.852691	3.267429	78.125000	-318.847656
403321.854694	3.267614	78.125000	-318.847656
403321.856694	3.267637	78.125000	-318.847656
403321.858693	3.267292	35.940216	0.506778
403322.999699	3.267251	197.070312	0.390625
403323.001701	3.267436	197.070312	0.390625
403323.003700	3.267105	197.070312	0.390625
403323.005701	3.267036	35.937397	0.351982
403323.918258	3.267421	87.402344	-306.445312
403323.920258	3.267143	87.402344	-306.445312
403323.922259	3.266994	35.936928	0.550719
403325.096283	3.267234	198.046875	-1.953125
403325.098283	3.267854	198.046875	-1.953125
403325.100284	3.267425	198.046875	-1.953125
403325.102285	3.267346	35.940811	0.287767
403326.013242	3.266027	72.656250	-331.054687
403326.015244	3.267317	72.656250	-331.054687
403326.017244	3.266987	72.656250	-331.054687
403326.019245	3.266914	35.936054	0.549219
403327.193820	3.266901	199.023437	-4.101562
403327.195819	3.267270	199.023437	-4.101562
403327.197821	3.266870	199.023437	-4.101562
403327.199820	3.266808	35.934891	0.447800
403328.077836	3.266765	74.902344	-322.460937
403328.079838	3.267761	74.902344	-322.460937
403328.081838	3.267310	74.902344	-322.460937
403328.083839	3.267205	35.939259	0.555546
403329.259910	3.267249	195.117187	0.878906
403329.261910	3.266815	195.117187	0.878906
403329.263911	3.266783	35.934616	0.330341
403330.175922	3.267006	70.214844	-326.074219
403330.177918	3.267255	70.214844	-326.074219
403330.179920	3.266927	35.936203	0.775719
403331.353940	3.265166	190.039062	6.250000
403331.355941	3.267331	190.039062	6.250000
403331.357941	3.267178	190.039062	6.250000
403331.359942	3.266957	35.936531	0.271655
403332.238890	3.265610	78.222656	-305.273437
403332.240892	3.267221	78.222656	-305.273437
403332.242892	3.267080	78.222656	-305.273437
403332.244890	3.266912	35.936035	0.617374
403333.450928	3.264764	187.207031	8.007812
403333.452930	3.267251	187.207031	8.007812
403333.454932	3.267197	187.207031	8.007812
403333.456931	3.266908	35.935989	0.262947
403334.336972	3.266861	70.312500	-301.464844
403334.338973	3.267210	70.312500	-301.464844
403334.340974	3.266951	70.312500	-301.464844
403334.342973	3.266834	35.935173	0.616219
403335.515043	3.264129	179.003906	14.843750
403335.517046	3.266814	179.003906	14.843750
403335.519045	3.266964	179.003906	14.843750
403335.521046	3.266637	179.003906	14.843750
403335.527044	3.266595	35.932541	0.292866
403336.435098	3.267194	75.390625	-284.570312
403336.437101	3.266934	75.390625	-284.570312
403336.439102	3.266716	35.933872	0.606886
403337.615172	3.267341	177.050781	14.746094
403337.617177	3.267068	177.050781	14.746094
403337.619177	3.266838	35.935219	0.276589
403338.533254	3.267564	80.859375	-279.003906
403338.535253	3.267235	80.859375	-279.003906
403338.537253	3.267156	35.938721	0.562012
403339.677839	3.266361	177.929687	14.257812
403339.679840	3.267251	177.929687	14.257812
403339.681840	3.266857	177.929687	14.257812
403339.683841	3.266808	35.934891	0.305281
403340.627874	3.266026	82.910156	-282.226562
403340.629876	3.267263	82.910156	-282.226562
403340.631879	3.266957	82.910156	-282.226562
403340.633881	3.266815	35.934963	0.547881
403341.742473	3.267031	180.957031	16.796875
403341.746472	3.267208	180.957031	16.796875
403341.748476	3.267106	180.957031	16.796875
403341.750475	3.267168	35.938843	0.343333
403342.726525	3.267642	78.320312	-295.703125
403342.728531	3.267444	78.320312	-295.703125
403342.730537	3.267187	35.939056	0.521276
403343.839123	3.266013	187.597656	9.765625
403343.841125	3.267138	187.597656	9.765625
403343.843126	3.266837	187.597656	9.765625
403343.845125	3.266714	35.933853	0.342230
403344.789130	3.266190	81.250000	-295.507812
403344.791132	3.267720	81.250000	-295.507812
403344.793132	3.267469	81.250000	-295.507812
403344.795133	3.267272	35.939987	0.578295
403345.939172	3.267416	191.992187	5.761719
403345.943173	3.267068	191.992187	5.761719
403345.947174	3.267038	35.937416	0.539051
403346.885714	3.264718	75.585937	-306.835937
403346.887714	3.267439	75.585937	-306.835937
403346.889715	3.267537	75.585937	-306.835937
403346.891715	3.267280	35.940075	0.520656
403348.001786	3.267130	194.140625	7.324219
403348.003789	3.267254	194.140625	7.324219
403348.005789	3.266894	35.935837	0.707076
403348.984722	3.188726	72.265625	-312.695312
403348.986724	3.267386	72.265625	-312.695312
403348.988723	3.267056	72.265625	-312.695312
403348.990724	3.267005	35.937054	0.491022
403350.097291	3.265506	195.410156	4.296875
403350.099294	3.267359	195.410156	4.296875
403350.101295	3.267193	195.410156	4.296875
403350.103293	3.266997	35.936966	0.371394
403351.047348	3.264386	74.414062	-308.691406
403351.049351	3.267035	74.414062	-308.691406
403351.051351	3.267029	74.414062	-308.691406
403351.055349	3.266632	35.932949	0.558706
403352.197442	3.267251	194.433594	3.027344
403352.199444	3.266954	194.433594	3.027344
403352.201443	3.266929	35.936222	0.352083
403353.144040	3.263683	76.562500	-302.148437
403353.146043	3.267180	76.562500	-302.148437
403353.154042	3.267041	76.562500	-302.148437
403353.156044	3.267052	76.562500	-302.148437
403353.158047	3.267007	35.937080	0.515196
403354.258619	3.265088	192.089844	8.691406
403354.260622	3.267155	192.089844	8.691406
403354.262621	3.267206	192.089844	8.691406
403354.264625	3.266950	35.936451	0.371541
403355.243176	3.266927	66.699219	-313.281250
403355.245179	3.267394	66.699219	-313.281250
403355.247179	3.266869	66.699219	-313.281250
403355.249179	3.266901	35.935909	0.501146
403356.357250	3.266747	188.769531	9.179687
403356.359252	3.267199	188.769531	9.179687
403356.361253	3.266804	188.769531	9.179687
403356.363252	3.266753	35.934280	0.349682
403357.307861	3.267304	86.035156	-278.125000
403357.309864	3.267435	86.035156	-278.125000
403357.311864	3.267091	86.035156	-278.125000
403357.313865	3.267070	35.937771	0.822117
403358.453904	3.266871	184.960937	8.593750
403358.457904	3.267315	184.960937	8.593750
403358.459905	3.267232	184.960937	8.593750
403358.461904	3.267253	35.939781	0.333626
403359.403931	3.266405	75.000000	-286.523437
403359.405935	3.267488	75.000000	-286.523437
403359.407934	3.267144	75.000000	-286.523437
403359.409935	3.267004	35.937042	0.559871
403360.519945	3.267375	181.738281	15.332031
403360.521947	3.267114	181.738281	15.332031
403360.523949	3.266912	35.936035	0.353145
403361.468932	3.267307	75.488281	-279.785156
403361.470933	3.267735	75.488281	-279.785156
403361.472934	3.267398	75.488281	-279.785156
403361.474935	3.267315	35.940464	0.632629
403362.615020	3.265738	182.812500	12.695312
403362.617020	3.265952	182.812500	12.695312
403362.619018	3.266931	182.812500	12.695312
403362.623018	3.266725	35.933979	0.342865
403363.565595	3.266652	62.304687	-299.218750
403363.567597	3.267693	62.304687	-299.218750
403363.569597	3.267233	62.304687	-299.218750
403363.573595	3.267071	35.937778	0.534639
403364.714139	3.267575	187.792969	6.933594
403364.716141	3.267306	187.792969	6.933594
403364.718140	3.267147	35.938614	0.329260
403365.630200	3.266762	62.695312	-303.515625
403365.632202	3.267588	62.695312	-303.515625
403365.634202	3.267175	62.695312	-303.515625
403365.636202	3.267023	35.937248	0.619033
403366.810271	3.267157	194.140625	1.953125
403366.812272	3.267522	194.140625	1.953125
403366.814270	3.267181	194.140625	1.953125
403366.816270	3.267074	35.937817	0.445480
403367.728317	3.267167	49.023437	-339.062500
403367.730321	3.267111	49.023437	-339.062500
403367.732320	3.266891	35.935802	0.520199
403368.906453	3.265668	200.781250	-4.394531
403368.908455	3.267140	200.781250	-4.394531
403368.910454	3.266906	200.781250	-4.394531
403368.912454	3.266751	35.934261	0.308342
403369.792501	3.267155	61.425781	-329.589844
403369.794502	3.267249	61.425781	-329.589844
403369.796501	3.266991	35.936901	0.628348
403370.970553	3.265430	204.003906	-6.152344
403370.972554	3.267494	204.003906	-6.152344
403370.974556	3.267365	204.003906	-6.152344
403370.976558	3.267123	35.938354	0.381269
403371.888606	3.266216	62.890625	-334.472656
403371.890609	3.267346	62.890625	-334.472656
403371.892609	3.267287	62.890625	-334.472656
403371.894608	3.266935	35.936279	0.562023
403373.067130	3.264018	206.445312	-8.398437
403373.069132	3.267106	206.445312	-8.398437
403373.071133	3.267253	206.445312	-8.398437
403373.073132	3.266877	206.445312	-8.398437
403373.075131	3.266867	35.935539	0.355213
403373.985152	3.265530	55.078125	-349.707031
403373.987153	3.267432	55.078125	-349.707031
403373.989154	3.267318	55.078125	-349.707031
403373.991153	3.267018	35.937195	0.514311
403375.133184	3.267131	207.128906	-8.007812
403375.139183	3.267378	207.128906	-8.007812
403375.141185	3.267297	207.128906	-8.007812
403375.143186	3.267282	35.940102	0.394686
403376.049757	3.265720	72.656250	-320.898437
403376.051759	3.267238	72.656250	-320.898437
403376.053761	3.267022	72.656250	-320.898437
403376.055758	3.266817	35.934990	0.621622
403377.230344	3.266723	208.300781	-11.816406
403377.232346	3.267180	208.300781	-11.816406
403377.234347	3.266868	208.300781	-11.816406
403377.236346	3.266743	35.934174	0.395531
403378.146368	3.264585	64.453125	-335.449219
403378.148368	3.267285	64.453125	-335.449219
403378.150369	3.267433	64.453125	-335.449219
403378.152370	3.267126	35.938381	0.574293
403379.296456	3.267392	208.593750	-8.398437
403379.300456	3.266836	208.593750	-8.398437
403379.304456	3.266811	35.934917	0.434800
403380.245397	3.267338	53.906250	-351.757812
403380.247399	3.267517	53.906250	-351.757812
403380.249400	3.267139	53.906250	-351.757812
403380.251398	3.267205	35.939251	0.517953
403381.393429	3.267480	209.667969	-11.035156
403381.395430	3.267443	209.667969	-11.035156
403381.397429	3.266862	35.935482	0.412220
403382.309449	3.266959	64.062500	-333.886719
403382.311449	3.267387	64.062500	-333.886719
403382.313448	3.267087	64.062500	-333.886719
403382.315449	3.266967	35.936638	0.606665
403383.487503	3.264148	208.496094	-12.597656
403383.491512	3.267065	208.496094	-12.597656
403383.493513	3.266861	208.496094	-12.597656
403383.497511	3.266765	35.934410	0.352708
403384.405555	3.265773	60.253906	-340.820312
403384.407554	3.267529	60.253906	-340.820312
403384.409556	3.267338	60.253906	-340.820312
403384.411561	3.267085	35.937931	0.582112
403385.553639	3.267238	209.472656	-10.742187
403385.555641	3.267564	209.472656	-10.742187
403385.557639	3.267234	209.472656	-10.742187
403385.559640	3.267183	35.939011	0.598345
403386.503701	3.266872	53.320312	-351.660156
403386.505705	3.267333	53.320312	-351.660156
403386.507703	3.267015	53.320312	-351.660156
403386.509705	3.267015	35.937160	0.535091
403387.649822	3.266048	210.839844	-11.621094
403387.651823	3.267223	210.839844	-11.621094
403387.653825	3.267011	210.839844	-11.621094
403387.655824	3.266832	35.935158	0.423509
403388.566809	3.265387	60.253906	-339.160156
403388.568809	3.267483	60.253906	-339.160156
403388.570808	3.267467	60.253906	-339.160156
403388.572810	3.267190	35.939091	0.609496
403389.746838	3.266344	209.570312	-13.769531
403389.748840	3.267755	209.570312	-13.769531
403389.750840	3.267473	209.570312	-13.769531
403389.752841	3.267333	35.940662	0.339917
403390.664866	3.266562	54.296875	-347.949219
403390.666867	3.267319	54.296875	-347.949219
403390.668868	3.267061	54.296875	-347.949219
403390.672866	3.266883	35.935715	0.572309
403391.810916	3.265294	211.132812	-10.937500
403391.812920	3.267099	211.132812	-10.937500
403391.814918	3.267069	211.132812	-10.937500
403391.816918	3.266774	35.934509	0.457776
403392.764958	3.267114	50.878906	-352.441406
403392.766956	3.266801	50.878906	-352.441406
403392.768956	3.266828	35.935104	0.477486
403393.907547	3.263855	208.398437	-10.253906
403393.909547	3.267155	208.398437	-10.253906
403393.911547	3.267367	208.398437	-10.253906
403393.913548	3.266991	208.398437	-10.253906
403393.915547	3.266998	35.936974	0.411812
403394.825594	3.265109	57.324219	-334.179687
403394.827597	3.267148	57.324219	-334.179687
403394.829596	3.267060	57.324219	-334.179687
403394.831596	3.266812	35.934937	0.568218
403396.005665	3.265708	206.542969	-8.496094
403396.007667	3.267189	206.542969	-8.496094
403396.009667	3.266871	206.542969	-8.496094
403396.011667	3.266696	35.933659	0.343978
403396.923694	3.266629	54.101562	-330.859375
403396.925695	3.267437	54.101562	-330.859375
403396.927694	3.266998	54.101562	-330.859375
403396.929694	3.266948	35.936432	0.541308
403398.069744	3.266346	202.441406	-2.441406
403398.071746	3.267854	202.441406	-2.441406
403398.073747	3.267605	202.441406	-2.441406
403398.075746	3.267382	35.941200	0.420693
403398.987841	3.266459	62.207031	-300.683594
403398.989844	3.267415	62.207031	-300.683594
403398.991844	3.267046	62.207031	-300.683594
403398.993842	3.266994	35.936928	0.645501
403400.167921	3.266583	196.582031	0.195312
403400.169920	3.267232	196.582031	0.195312
403400.171923	3.266886	196.582031	0.195312
403400.173922	3.266754	35.934296	0.351382
403401.085991	3.267227	60.839844	-288.671875
403401.087993	3.267216	60.839844	-288.671875
403401.089997	3.266982	35.936806	0.593420
403402.232580	3.266807	193.261719	4.003906
403402.234582	3.267122	193.261719	4.003906
403402.236581	3.266758	193.261719	4.003906
403402.238580	3.266695	35.933651	0.586892
403403.182597	3.267221	58.398437	-285.546875
403403.184599	3.267781	58.398437	-285.546875
403403.186599	3.267339	58.398437	-285.546875
403403.188599	3.267326	35.940590	0.554447
403404.328589	3.265821	189.746094	5.761719
403404.330590	3.267359	189.746094	5.761719
403404.332590	3.267164	189.746094	5.761719
403404.334590	3.266959	35.936550	0.341682
403405.278611	3.265292	64.941406	-275.683594
403405.280610	3.267281	64.941406	-275.683594
403405.282611	3.267134	64.941406	-275.683594
403405.284611	3.267096	35.938053	0.518789
403406.393557	3.266767	191.406250	4.589844
403406.395560	3.267690	191.406250	4.589844
403406.397560	3.267274	191.406250	4.589844
403406.399558	3.267164	35.938805	0.407790
403407.375573	3.264747	59.863281	-290.234375
403407.377575	3.267237	59.863281	-290.234375
403407.379575	3.267125	59.863281	-290.234375
403407.381576	3.266952	35.936466	0.522141
403408.489578	3.264569	193.750000	1.660156
403408.491580	3.267093	193.750000	1.660156
403408.493580	3.267068	193.750000	1.660156
403408.495580	3.266834	35.935173	0.382656
403409.441567	3.266787	70.214844	-281.445312
403409.443568	3.267067	70.214844	-281.445312
403409.445569	3.266728	70.214844	-281.445312
403409.447568	3.266658	35.933235	0.589559
403410.555633	3.266885	199.707031	3.027344
403410.557635	3.267154	199.707031	3.027344
403410.559635	3.266802	199.707031	3.027344
403410.561636	3.266786	35.934643	0.439892
403411.538182	3.266745	64.355469	-296.679687
403411.540185	3.267468	64.355469	-296.679687
403411.542183	3.267032	64.355469	-296.679687
403411.544186	3.266936	35.936298	0.534761
403412.652310	3.266521	200.976562	-2.148437
403412.654310	3.267363	200.976562	-2.148437
403412.656310	3.266995	200.976562	-2.148437
403412.658311	3.266839	35.935226	0.408627
403413.634377	3.265029	60.058594	-308.984375
403413.636377	3.267061	60.058594	-308.984375
403413.638378	3.266885	60.058594	-308.984375
403413.640378	3.266665	35.933311	0.485409
403414.748885	3.265899	202.148437	-4.296875
403414.750887	3.267406	202.148437	-4.296875
403414.752888	3.267124	202.148437	-4.296875
403414.754888	3.266916	35.936081	0.382749
403415.698932	3.266047	64.941406	-300.683594
403415.700935	3.267608	64.941406	-300.683594
403415.702933	3.267379	64.941406	-300.683594
403415.704933	3.267180	35.938984	0.572007
403416.814976	3.267529	205.664062	-1.367187
403416.816978	3.267330	205.664062	-1.367187
403416.818979	3.267055	35.937603	0.977874
403417.797006	3.266700	63.867187	-301.757812
403417.799010	3.267251	63.867187	-301.757812
403417.801008	3.266926	63.867187	-301.757812
403417.803009	3.266754	35.934296	0.523467
403418.911582	3.266954	202.539062	-1.953125
403418.913582	3.267148	202.539062	-1.953125
403418.915584	3.266888	202.539062	-1.953125
403418.917582	3.266836	35.935192	0.397267
403419.894084	3.266600	56.445312	-310.937500
403419.896085	3.267172	56.445312	-310.937500
403419.898087	3.266880	56.445312	-310.937500
403419.900094	3.266767	35.934441	0.490049
403421.010198	3.267582	200.000000	-0.781250
403421.012199	3.267210	200.000000	-0.781250
403421.014200	3.267155	35.938709	0.373320
403421.960197	3.267287	64.160156	-289.550781
403421.962199	3.266968	64.160156	-289.550781
403421.964198	3.266820	35.935024	0.560311
403423.072255	3.266161	199.023437	3.710937
403423.074256	3.266251	199.023437	3.710937
403423.076255	3.266840	199.023437	3.710937
403423.078255	3.266700	35.933704	0.422344
403424.054255	3.264844	57.031250	-289.160156
403424.056263	3.267504	57.031250	-289.160156
403424.058266	3.267603	57.031250	-289.160156
403424.060267	3.267302	57.031250	-289.160156
403424.062265	3.267204	35.939243	0.540514
403425.170305	3.267002	194.531250	3.613281
403425.172306	3.267142	194.531250	3.613281
403425.174305	3.266869	194.531250	3.613281
403425.176305	3.266766	35.934422	0.638390
403426.120351	3.266836	72.167969	-256.738281
403426.122351	3.267110	72.167969	-256.738281
403426.124354	3.266749	72.167969	-256.738281
403426.126353	3.266749	35.934242	0.603708
403427.266412	3.265878	194.042969	1.171875
403427.268413	3.267315	194.042969	1.171875
403427.270413	3.267002	194.042969	1.171875
403427.272413	3.266906	35.935963	0.369860
403428.218475	3.267344	55.175781	-279.003906
403428.220477	3.267116	55.175781	-279.003906
403428.222478	3.266928	35.936211	0.519139
403429.365044	3.267159	195.117187	-0.781250
403429.367045	3.266994	195.117187	-0.781250
403429.369045	3.266762	35.934376	0.341508
403430.281612	3.266523	51.562500	-286.230469
403430.283618	3.267167	51.562500	-286.230469
403430.285621	3.266857	51.562500	-286.230469
403430.287622	3.266886	35.935753	0.603496
403431.427665	3.265634	200.585937	-0.585937
403431.429664	3.267421	200.585937	-0.585937
403431.433663	3.266936	200.585937	-0.585937
403431.437663	3.266893	35.935822	0.438583
403432.378208	3.266007	45.996094	-306.542969
403432.380212	3.267223	45.996094	-306.542969
403432.382210	3.266913	45.996094	-306.542969
403432.384209	3.266815	35.934963	0.490395
403433.525180	3.266278	206.054687	-5.664062
403433.527182	3.267428	206.054687	-5.664062
403433.529181	3.267069	206.054687	-5.664062
403433.531180	3.266866	35.935528	0.389065
403434.442088	3.265124	48.828125	-316.113281
403434.444091	3.267133	48.828125	-316.113281
403434.446091	3.267093	48.828125	-316.113281
403434.448089	3.266760	35.934357	0.626625
403435.622106	3.266110	209.765625	-11.914062
403435.624108	3.267666	209.765625	-11.914062
403435.626108	3.267411	209.765625	-11.914062
403435.628106	3.267261	35.939873	0.394208
403436.540146	3.266549	42.187500	-338.769531
403436.542147	3.267421	42.187500	-338.769531
403436.544148	3.266961	42.187500	-338.769531
403436.546148	3.266917	35.936089	0.524209
403437.720231	3.266915	211.230469	-15.429687
403437.722233	3.267187	211.230469	-15.429687
403437.724234	3.266879	211.230469	-15.429687
403437.726234	3.266807	35.934872	0.458528
403438.640319	3.267244	36.425781	-353.808594
403438.642323	3.267068	35.937752	0.470662
403439.784363	3.266715	215.332031	-15.820312
403439.786367	3.267380	215.332031	-15.820312
403439.788368	3.266966	215.332031	-15.820312
403439.790371	3.266912	35.936035	0.407296
403440.700429	3.264606	53.906250	-325.097656
403440.702437	3.267193	53.906250	-325.097656
403440.704438	3.267256	53.906250	-325.097656
403440.706437	3.267019	35.937210	0.590575
403441.880507	3.265462	213.769531	-17.382812
403441.882510	3.267267	213.769531	-17.382812
403441.884511	3.267036	213.769531	-17.382812
403441.886508	3.266798	35.934776	0.369532
403442.798539	3.266271	50.097656	-333.593750
403442.800539	3.267684	50.097656	-333.593750
403442.802540	3.267334	50.097656	-333.593750
403442.804537	3.267131	35.938438	0.507079
403443.945541	3.266169	216.015625	-16.210937
403443.947542	3.267197	216.015625	-16.210937
403443.949544	3.266786	216.015625	-16.210937
403443.951548	3.266759	35.934349	0.423498
403444.895615	3.266200	42.382812	-345.214844
403444.897618	3.267310	42.382812	-345.214844
403444.899617	3.266999	42.382812	-345.214844
403444.901617	3.266758	35.934341	0.470220
403446.044126	3.267718	214.746094	-18.554687
403446.046129	3.267465	214.746094	-18.554687
403446.048127	3.267321	35.940536	0.403611
403446.960121	3.266182	56.835937	-320.800781
403446.962122	3.267273	56.835937	-320.800781
403446.964122	3.266922	56.835937	-320.800781
403446.966124	3.266859	35.935448	0.564277
403448.140177	3.266471	214.160156	-17.968750
403448.142179	3.267179	214.160156	-17.968750
403448.144178	3.266792	214.160156	-17.968750
403448.146179	3.266670	35.933376	0.348665
403449.056235	3.264274	40.820312	-345.507812
403449.058245	3.267225	40.820312	-345.507812
403449.062247	3.267029	40.820312	-345.507812
403449.064249	3.267020	40.820312	-345.507812
403449.066247	3.267000	35.937000	0.502308
403450.204279	3.266242	215.625000	-15.234375
403450.206282	3.267375	215.625000	-15.234375
403450.208288	3.266975	215.625000	-15.234375
403450.210288	3.266927	35.936195	0.422689
403451.122312	3.266972	53.027344	-316.992187
403451.126313	3.267007	53.027344	-316.992187
403451.128317	3.266927	53.027344	-316.992187
403451.130319	3.266914	35.936054	0.687557
403452.300366	3.264755	212.695312	-15.234375
403452.302366	3.267404	212.695312	-15.234375
403452.304365	3.267390	212.695312	-15.234375
403452.306367	3.267157	35.938728	0.394743
403453.218415	3.265663	48.828125	-316.015625
403453.220416	3.267326	48.828125	-316.015625
403453.224415	3.266936	48.828125	-316.015625
403453.226416	3.266936	35.936298	0.539818
403454.367405	3.267276	211.328125	-10.156250
403454.369409	3.266972	211.328125	-10.156250
403454.371407	3.266835	35.935181	0.412498
403455.315928	3.266567	37.109375	-321.289062
403455.317930	3.267648	37.109375	-321.289062
403455.319929	3.267335	37.109375	-321.289062
403455.321931	3.267164	35.938805	0.464560
403456.462006	3.264994	205.468750	-8.789062
403456.464008	3.267176	205.468750	-8.789062
403456.466007	3.267167	205.468750	-8.789062
403456.468006	3.266902	35.935928	0.385000
403457.382981	3.267764	51.757812	-282.519531
403457.384981	3.267363	51.757812	-282.519531
403457.386982	3.267275	35.940022	0.679273
403458.561528	3.267433	202.441406	-8.105469
403458.563529	3.267288	202.441406	-8.105469
403458.565532	3.267002	35.937027	0.356179
403459.476447	3.264256	43.164062	-281.542969
403459.478450	3.267204	43.164062	-281.542969
403459.480448	3.267308	43.164062	-281.542969
403459.482448	3.267080	43.164062	-281.542969
403459.484449	3.267031	35.937340	0.536058
403460.624497	3.266567	199.218750	-5.273437
403460.626499	3.267271	199.218750	-5.273437
403460.628498	3.267003	199.218750	-5.273437
403460.630498	3.266903	35.935936	0.405401
403461.576560	3.267285	47.167969	-270.996094
403461.578560	3.266896	47.167969	-270.996094
403461.580561	3.266803	35.934830	0.504981
403462.721144	3.265752	196.093750	-6.250000
403462.723148	3.265857	196.093750	-6.250000
403462.725147	3.267008	196.093750	-6.250000
403462.727148	3.266829	35.935123	0.351798
403463.671167	3.264971	43.261719	-276.074219
403463.673169	3.267239	43.261719	-276.074219
403463.675168	3.267042	43.261719	-276.074219
403463.677168	3.266873	35.935600	0.465879
403464.785228	3.265365	200.000000	-2.441406
403464.787229	3.267537	200.000000	-2.441406
403464.789228	3.267528	200.000000	-2.441406
403464.791228	3.267174	35.938915	0.401003
403465.771257	3.267588	48.730469	-276.855469
403465.773262	3.267131	48.730469	-276.855469
403465.777268	3.267090	35.937992	0.443916
403466.881813	3.263341	199.121094	-6.542969
403466.883814	3.266870	199.121094	-6.542969
403466.885816	3.267119	199.121094	-6.542969
403466.887816	3.266778	199.121094	-6.542969
403466.889816	3.266788	35.934669	0.370469
403467.833830	3.266979	62.695312	-263.671875
403467.835833	3.267489	62.695312	-263.671875
403467.837833	3.267045	62.695312	-263.671875
403467.839832	3.266970	35.936672	0.522462
403468.947803	3.266583	206.640625	-4.199219
403468.951803	3.266927	206.640625	-4.199219
403468.953806	3.266728	206.640625	-4.199219
403468.955806	3.266773	35.934502	0.424682
403469.930695	3.266337	53.027344	-288.671875
403469.932695	3.267203	53.027344	-288.671875
403469.934694	3.266821	53.027344	-288.671875
403469.938692	3.266733	35.934067	0.493153
403471.044790	3.266485	206.445312	-8.593750
403471.046792	3.267431	206.445312	-8.593750
403471.048789	3.267013	206.445312	-8.593750
403471.050791	3.266883	35.935715	0.389515
403472.026879	3.265202	46.777344	-303.417969
403472.028881	3.267270	46.777344	-303.417969
403472.030883	3.267201	46.777344	-303.417969
403472.034880	3.266835	35.935181	0.428030
403473.108927	3.266265	210.937500	-7.421875
403473.112928	3.267170	210.937500	-7.421875
403473.114929	3.266979	210.937500	-7.421875
403473.116931	3.266990	35.936893	0.474538
403474.093006	3.267265	60.644531	-279.882812
403474.095007	3.267379	60.644531	-279.882812
403474.097007	3.267148	60.644531	-279.882812
403474.099006	3.267071	35.937778	0.531403
403475.207563	3.267580	208.789062	-8.789062
403475.209563	3.267488	208.789062	-8.789062
403475.211565	3.267217	35.939384	0.413222
403476.189596	3.266557	49.121094	-295.507812
403476.191599	3.267170	49.121094	-295.507812
403476.193597	3.266808	49.121094	-295.507812
403476.195599	3.266707	35.933781	0.461739
403477.303677	2.508043	206.250000	-8.593750
403477.305679	3.267152	206.250000	-8.593750
403477.309677	3.266758	206.250000	-8.593750
403477.311679	3.266837	35.935207	0.389573
403478.253737	3.266961	58.105469	-275.683594
403478.255738	3.267660	58.105469	-275.683594
403478.257738	3.267341	58.105469	-275.683594
403478.259738	3.267210	35.939312	0.558493
403479.367782	3.266335	205.761719	-4.980469
403479.369784	3.267214	205.761719	-4.980469
403479.371784	3.266968	205.761719	-4.980469
403479.373784	3.266784	35.934624	0.442060
403480.349844	3.264688	54.882812	-261.718750
403480.351846	3.264821	54.882812	-261.718750
403480.353846	3.267077	54.882812	-261.718750
403480.355848	3.266794	35.934731	0.510052
403481.463945	3.264614	203.515625	-5.175781
403481.465949	3.267023	203.515625	-5.175781
403481.467949	3.267040	203.515625	-5.175781
403481.469950	3.266801	35.934811	0.397164
403482.447979	3.266511	41.796875	-279.199219
403482.449981	3.267474	41.796875	-279.199219
403482.451983	3.267140	41.796875	-279.199219
403482.453985	3.266962	35.936584	0.438318
403483.562073	3.266485	201.757812	-5.664062
403483.564073	3.267218	201.757812	-5.664062
403483.566073	3.266893	201.757812	-5.664062
403483.568076	3.266849	35.935341	0.373023
403484.512100	3.265953	53.613281	-246.972656
403484.514100	3.267190	53.613281	-246.972656
403484.516100	3.266837	53.613281	-246.972656
403484.518100	3.266749	35.934235	0.510473
403485.662664	3.267110	200.781250	-6.542969
403485.664667	3.266879	35.935669	0.356461
403486.577203	3.266807	53.906250	-249.609375
403486.579204	3.267264	53.906250	-249.609375
403486.581204	3.266914	53.906250	-249.609375
403486.583206	3.266779	35.934570	0.641999
403487.725282	3.267654	207.714844	-5.468750
403487.727282	3.267685	207.714844	-5.468750
403487.729282	3.267180	35.938984	0.434599
403488.675826	3.266214	37.988281	-276.269531
403488.677828	3.266819	37.988281	-276.269531
403488.679827	3.266674	35.933411	0.510715
403489.819854	3.264732	210.253906	-10.351562
403489.821857	3.267206	210.253906	-10.351562
403489.823856	3.267087	210.253906	-10.351562
403489.825856	3.266901	35.935909	0.423267
403490.739876	3.267291	49.218750	-276.757812
403490.741876	3.267060	49.218750	-276.757812
403490.743876	3.266860	35.935467	0.611871
403491.918462	3.267017	214.746094	-13.183594
403491.920462	3.267431	214.746094	-13.183594
403491.922463	3.267086	214.746094	-13.183594
403491.924463	3.266961	35.936565	0.388051
403492.837423	3.267774	34.765625	-314.160156
403492.839424	3.267323	34.765625	-314.160156
403492.841423	3.267253	35.939781	0.489037
403493.983533	3.267159	219.726562	-14.648437
403493.985535	3.267032	219.726562	-14.648437
403493.987536	3.266819	35.935005	0.459396
403494.932124	3.266525	37.011719	-319.433594
403494.934127	3.267724	37.011719	-319.433594
403494.936129	3.267432	37.011719	-319.433594
403494.938128	3.267294	35.940235	0.442561
403496.079050	3.265705	220.605469	-19.335937
403496.081051	3.266976	220.605469	-19.335937
403496.085052	3.266608	220.605469	-19.335937
403496.087053	3.266585	35.932438	0.417489
403496.997072	3.266376	44.042969	-314.843750
403496.999073	3.267184	44.042969	-314.843750
403497.001075	3.266869	44.042969	-314.843750
403497.003074	3.266697	35.933670	0.575906
403498.177135	3.266862	218.750000	-21.484375
403498.179137	3.267256	218.750000	-21.484375
403498.181135	3.266897	218.750000	-21.484375
403498.183137	3.266807	35.934872	0.383513
403499.093128	3.265057	38.964844	-327.539062
403499.095131	3.267447	38.964844	-327.539062
403499.097132	3.267503	38.964844	-327.539062
403499.099131	3.267204	35.939243	0.486078
403500.243177	3.267175	224.316406	-19.433594
403500.245179	3.266787	224.316406	-19.433594
403500.247178	3.266741	35.934147	0.444524
403501.195230	3.267380	35.937500	-332.128906
403501.197230	3.267272	35.939987	0.423210
403502.339771	3.267210	221.191406	-22.070312
403502.341773	3.266880	221.191406	-22.070312
403502.343774	3.266685	35.933537	0.409552
403503.259789	3.266707	46.191406	-313.183594
403503.261792	3.266578	35.932354	0.536036
403504.402320	3.266059	224.804687	-19.824219
403504.404321	3.267294	224.804687	-19.824219
403504.406321	3.266988	224.804687	-19.824219
403504.408321	3.266901	35.935909	0.497014
403505.352386	3.266181	37.988281	-323.437500
403505.354387	3.267469	37.988281	-323.437500
403505.356387	3.267172	37.988281	-323.437500
403505.358388	3.266982	35.936806	0.462549
403506.498439	3.263995	222.949219	-18.750000
403506.500441	3.267006	222.949219	-18.750000
403506.502441	3.267189	222.949219	-18.750000
403506.504441	3.267228	222.949219	-18.750000
403506.506442	3.266896	35.935856	0.445249
403507.416451	3.265207	43.554687	-304.687500
403507.418452	3.267401	43.554687	-304.687500
403507.420451	3.267251	43.554687	-304.687500
403507.422454	3.266961	35.936573	0.595522
403508.596529	3.266188	217.968750	-19.042969
403508.600528	3.267356	217.968750	-19.042969
403508.602531	3.267084	217.968750	-19.042969
403508.604530	3.267047	35.937523	0.393194
403509.514573	3.266464	40.917969	-300.878906
403509.516575	3.267134	40.917969	-300.878906
403509.518576	3.266766	40.917969	-300.878906
403509.520575	3.266687	35.933552	0.502242
403510.663131	3.267660	218.945312	-14.355469
403510.665132	3.267373	218.945312	-14.355469
403510.667132	3.267202	35.939224	0.459529
403511.611715	3.267175	36.914062	-291.796875
403511.613718	3.267689	36.914062	-291.796875
403511.615717	3.267431	36.914062	-291.796875
403511.617717	3.267356	35.940918	0.444622
403512.759787	3.267245	213.867187	-12.695312
403512.761789	3.267002	213.867187	-12.695312
403512.763790	3.266879	35.935669	0.399185
403513.678715	3.267186	48.046875	-256.347656
403513.680717	3.266989	48.046875	-256.347656
403513.682719	3.266975	35.936726	0.602580
403514.855311	3.266197	206.445312	-12.402344
403514.857312	3.267363	206.445312	-12.402344
403514.859312	3.267027	206.445312	-12.402344
403514.861313	3.266948	35.936424	0.340077
403515.775321	3.267137	38.378906	-257.714844
403515.777325	3.266870	38.378906	-257.714844
403515.779324	3.266770	35.934475	0.512618
403516.921375	3.267197	206.347656	-10.058594
403516.923376	3.266850	206.347656	-10.058594
403516.925377	3.266857	35.935432	0.391125
403517.869427	3.265388	43.457031	-246.484375
403517.871430	3.267183	43.457031	-246.484375
403517.873429	3.267032	43.457031	-246.484375
403517.875430	3.266812	35.934937	0.487219
403519.017446	3.266985	203.613281	-9.082031
403519.019448	3.267483	203.613281	-9.082031
403519.021449	3.267146	203.613281	-9.082031
403519.023449	3.267023	35.937248	0.340954
403519.965965	3.263792	45.312500	-243.945312
403519.967966	3.267047	45.312500	-243.945312
403519.969968	3.267251	45.312500	-243.945312
403519.973965	3.266915	45.312500	-243.945312
403519.975967	3.266974	35.936718	0.445138
403521.080563	3.265248	207.226562	-8.398437
403521.082565	3.267647	207.226562	-8.398437
403521.084567	3.267611	207.226562	-8.398437
403521.086565	3.267297	35.940262	0.397198
403522.064609	3.266780	38.476562	-263.867187
403522.066612	3.267390	38.476562	-263.867187
403522.068611	3.267155	38.476562	-263.867187
403522.072610	3.266950	35.936451	0.405256
403523.144664	3.264422	211.718750	-8.593750
403523.148696	3.267673	211.718750	-8.593750
403523.150699	3.267214	211.718750	-8.593750
403523.152699	3.267292	35.940208	0.475476
403524.130732	3.267023	54.003906	-249.023437
403524.132732	3.266802	54.003906	-249.023437
403524.134737	3.266620	35.932823	0.511343
403525.243285	3.266750	211.132812	-10.742187
403525.245286	3.267151	211.132812	-10.742187
403525.249284	3.266724	211.132812	-10.742187
403525.251289	3.266716	35.933872	0.418639
403526.225318	3.265472	45.703125	-267.578125
403526.227322	3.267450	45.703125	-267.578125
403526.229320	3.267251	45.703125	-267.578125
403526.231320	3.267033	35.937363	0.460487
403527.339365	3.265527	212.500000	-11.816406
403527.341368	3.267408	212.500000	-11.816406
403527.343370	3.267233	212.500000	-11.816406
403527.345370	3.266990	35.936893	0.368533
403528.322344	3.265277	37.890625	-282.324219
403528.324347	3.267280	37.890625	-282.324219
403528.328343	3.266905	37.890625	-282.324219
403528.330345	3.266834	35.935173	0.387230
403529.404372	3.266432	217.773437	-10.253906
403529.406374	3.267457	217.773437	-10.253906
403529.408374	3.267162	217.773437	-10.253906
403529.410372	3.266959	35.936550	0.463523
403530.387335	3.266098	46.289062	-267.480469
403530.389337	3.267503	46.289062	-267.480469
403530.391337	3.267215	46.289062	-267.480469
403530.393337	3.267089	35.937984	0.503610
403531.501374	3.266213	211.132812	-12.597656
403531.503375	3.267446	211.132812	-12.597656
403531.505374	3.267147	211.132812	-12.597656
403531.507375	3.266985	35.936840	0.404599
403532.485885	3.267293	39.257812	-272.949219
403532.487888	3.267208	39.257812	-272.949219
403532.489888	3.267012	35.937134	0.893351
403533.597889	3.264586	207.812500	-12.597656
403533.599891	3.266977	207.812500	-12.597656
403533.601892	3.266951	207.812500	-12.597656
403533.603891	3.266658	35.933243	0.376100
403534.549968	3.266910	54.394531	-242.480469
403534.551973	3.267115	54.394531	-242.480469
403534.553971	3.266792	54.394531	-242.480469
403534.555972	3.266808	35.934891	0.526312
403535.662546	3.265345	210.449219	-9.863281
403535.664549	3.267027	210.449219	-9.863281
403535.666550	3.266881	210.449219	-9.863281
403535.668547	3.266644	35.933083	0.433248
403536.646579	3.266533	44.433594	-245.019531
403536.648582	3.267228	44.433594	-245.019531
403536.652579	3.266754	44.433594	-245.019531
403536.654581	3.266736	35.934093	0.460900
403537.762681	3.267623	208.691406	-9.960937
403537.764684	3.267289	208.691406	-9.960937
403537.766684	3.267130	35.938427	0.402585
403538.710762	3.266831	50.488281	-227.343750
403538.712763	3.267624	50.488281	-227.343750
403538.714763	3.267244	50.488281	-227.343750
403538.716762	3.267157	35.938728	0.544511
403539.858822	3.267411	207.617187	-10.449219
403539.860823	3.267179	207.617187	-10.449219
403539.862823	3.267020	35.937222	0.363643
403540.807368	3.265940	41.210937	-237.792969
403540.809369	3.267155	41.210937	-237.792969
403540.811369	3.266951	41.210937	-237.792969
403540.813371	3.266796	35.934757	0.443555
403541.954342	3.266044	206.152344	-13.183594
403541.956344	3.267507	206.152344	-13.183594
403541.958343	3.267144	206.152344	-13.183594
403541.960344	3.266999	35.936993	0.339763
403542.872368	3.266498	39.160156	-241.503906
403542.874369	3.267368	39.160156	-241.503906
403542.876368	3.266888	39.160156	-241.503906
403542.878370	3.266810	35.934910	0.541945
403544.018400	3.265544	213.964844	-12.792969
403544.020404	3.267338	213.964844	-12.792969
403544.022404	3.267095	213.964844	-12.792969
403544.024404	3.266887	35.935760	0.438037
403544.965928	2.118262	35.351562	-258.203125
403544.971274	3.267731	35.351562	-258.203125
403544.973275	3.267448	35.351562	-258.203125
403544.975277	3.267300	35.940296	0.445949
403546.117878	3.267231	214.648437	-17.480469
403546.119877	3.266944	214.648437	-17.480469
403546.121879	3.266801	35.934811	0.395692
403547.034326	3.267099	38.671875	-266.796875
403547.036326	3.267350	38.671875	-266.796875
403547.038328	3.266943	38.671875	-266.796875
403547.040327	3.266917	35.936089	0.694497
403548.212402	3.264832	216.796875	-20.312500
403548.214401	3.267368	216.796875	-20.312500
403548.216401	3.267256	216.796875	-20.312500
403548.218402	3.267018	35.937195	0.372634
403549.130396	3.265787	32.226562	-288.085937
403549.132397	3.267183	32.226562	-288.085937
403549.134396	3.266866	32.226562	-288.085937
403549.136397	3.266700	35.933697	0.462716
403550.278464	3.267329	223.437500	-20.019531
403550.280464	3.267570	223.437500	-20.019531
403550.282465	3.267171	223.437500	-20.019531
403550.284465	3.267140	35.938541	0.442431
403551.229007	3.267180	29.199219	-298.925781
403551.231008	3.267204	29.199219	-298.925781
403551.233008	3.266839	35.935226	0.414895
403552.375581	3.267044	224.414062	-23.046875
403552.377583	3.267375	224.414062	-23.046875
403552.379581	3.266968	224.414062	-23.046875
403552.381582	3.266956	35.936512	0.590844
403553.291622	3.265219	36.230469	-295.898437
403553.293623	3.267167	36.230469	-295.898437
403553.295625	3.267097	36.230469	-295.898437
403553.297624	3.266808	35.934891	0.537691
403554.471692	3.265988	219.335937	-25.781250
403554.473693	3.267404	219.335937	-25.781250
403554.475694	3.267006	219.335937	-25.781250
403554.477697	3.266938	35.936317	0.354324
403555.389735	3.266820	29.199219	-309.765625
403555.391738	3.267466	29.199219	-309.765625
403555.393737	3.267130	29.199219	-309.765625
403555.395742	3.267019	35.937210	0.437093
403556.541860	3.267047	227.636719	-23.437500
403556.543860	3.267036	227.636719	-23.437500
403556.545860	3.266982	35.936806	0.428539
403557.485880	3.265010	26.953125	-310.937500
403557.487882	3.267014	26.953125	-310.937500
403557.489882	3.266899	26.953125	-310.937500
403557.491882	3.266714	35.933853	0.388051
403558.634482	3.266906	221.875000	-25.097656
403558.636482	3.266958	221.875000	-25.097656
403558.638482	3.266677	35.933445	0.703398
403559.550486	3.265809	34.570312	-295.019531
403559.552486	3.267620	34.570312	-295.019531
403559.554486	3.267443	34.570312	-295.019531
403559.558484	3.267252	35.939774	0.494943
403560.698507	3.266687	227.050781	-22.167969
403560.700509	3.267262	227.050781	-22.167969
403560.702509	3.266852	227.050781	-22.167969
403560.704508	3.266803	35.934830	0.564005
403561.650525	3.267631	31.152344	-292.578125
403561.652525	3.267221	31.152344	-292.578125
403561.654524	3.267080	35.937878	0.407427
403562.795513	3.266940	221.191406	-22.167969
403562.797516	3.267469	221.191406	-22.167969
403562.799514	3.267079	221.191406	-22.167969
403562.803514	3.267117	35.938286	0.411394
403563.711577	3.265028	44.238281	-259.277344
403563.713579	3.265155	44.238281	-259.277344
403563.715580	3.267541	44.238281	-259.277344
403563.717584	3.267229	35.939518	0.557202
403564.891660	3.265707	217.089844	-20.214844
403564.893661	3.267291	217.089844	-20.214844
403564.895659	3.267115	217.089844	-20.214844
403564.897661	3.266855	35.935406	0.375498
403565.811680	3.267177	27.343750	-270.410156
403565.813683	3.266845	27.343750	-270.410156
403565.815680	3.266697	35.933670	0.460420
403566.957766	3.267226	219.628906	-16.015625
403566.959769	3.267069	219.628906	-16.015625
403566.963764	3.266776	35.934536	0.424103
403567.906696	3.266484	25.097656	-256.738281
403567.908697	3.267575	25.097656	-256.738281
403567.910696	3.267151	25.097656	-256.738281
403567.912696	3.266966	35.936626	0.412565
403569.052736	3.264377	212.988281	-15.234375
403569.054737	3.266915	212.988281	-15.234375
403569.056738	3.267045	212.988281	-15.234375
403569.058738	3.266736	35.934093	0.363494
403570.004768	3.267072	23.437500	-247.753906
403570.006769	3.267333	23.437500	-247.753906
403570.008770	3.266990	23.437500	-247.753906
403570.010771	3.266975	35.936726	0.564404
403571.120818	3.267176	214.550781	-12.500000
403571.122818	3.266917	214.550781	-12.500000
403571.124819	3.266799	35.934795	0.430761
403572.067404	3.264730	43.261719	-216.210937
403572.069406	3.267010	43.261719	-216.210937
403572.071406	3.267118	43.261719	-216.210937
403572.073406	3.266799	35.934795	0.509725
403573.215446	3.266373	208.691406	-14.648437
403573.217449	3.266473	208.691406	-14.648437
403573.219447	3.266895	208.691406	-14.648437
403573.221447	3.266776	35.934536	0.362786
403574.167513	3.267471	44.042969	-220.117187
403574.169516	3.267061	44.042969	-220.117187
403574.171515	3.266967	35.936638	0.453759
403575.282060	3.267703	211.523437	-13.671875
403575.284063	3.267360	211.523437	-13.671875
403575.286065	3.267222	35.939445	0.418724
403576.262547	3.266256	36.914062	-234.375000
403576.264549	3.267570	36.914062	-234.375000
403576.266549	3.267216	36.914062	-234.375000
403576.268549	3.267072	35.937790	0.419209
403577.376590	3.265886	212.500000	-14.355469
403577.378593	3.267170	212.500000	-14.355469
403577.380593	3.266931	212.500000	-14.355469
403577.382591	3.266738	35.934120	0.370476
403578.358642	3.264527	34.179687	-249.511719
403578.360644	3.267146	34.179687	-249.511719
403578.362643	3.267404	34.179687	-249.511719
403578.364644	3.267086	34.179687	-249.511719
403578.366644	3.267014	35.937153	0.374782
403579.442698	3.267471	218.164062	-14.648437
403579.444700	3.267240	218.164062	-14.648437
403579.446700	3.267051	35.937557	0.455121
403580.424741	3.266610	44.433594	-239.941406
403580.426742	3.267122	44.433594	-239.941406
403580.428745	3.266794	44.433594	-239.941406
403580.430744	3.266666	35.933323	0.510432
403581.538807	3.266634	219.726562	-14.453125
403581.540812	3.267196	219.726562	-14.453125
403581.542817	3.266805	219.726562	-14.453125
403581.544817	3.266798	35.934776	0.394477
403582.522830	3.267364	42.871094	-244.433594
403582.524832	3.267183	42.871094	-244.433594
403582.526832	3.267031	35.937347	0.409055
403583.635813	3.266589	212.500000	-16.894531
403583.639812	3.266867	212.500000	-16.894531
403583.641815	3.266660	212.500000	-16.894531
403583.643815	3.266721	35.933926	0.355010
403584.585833	3.266451	53.222656	-228.222656
403584.587840	3.267481	53.222656	-228.222656
403584.589843	3.267076	53.222656	-228.222656
403584.591847	3.266986	35.936852	0.499968
403585.699913	3.266409	218.847656	-14.941406
403585.701915	3.267208	218.847656	-14.941406
403585.703915	3.266794	218.847656	-14.941406
403585.705919	3.266664	35.933304	0.433218
403586.683939	3.267486	41.699219	-236.328125
403586.685941	3.267477	41.699219	-236.328125
403586.687940	3.267485	35.942333	0.451493
403587.797970	3.267196	215.722656	-14.550781
403587.801972	3.266944	215.722656	-14.550781
403587.803972	3.266915	35.936069	0.376558
403588.778550	3.262565	39.355469	-231.445312
403588.780552	3.266682	39.355469	-231.445312
403588.782553	3.267155	39.355469	-231.445312
403588.784553	3.266788	39.355469	-231.445312
403588.786552	3.266745	35.934189	0.393437
403589.862608	3.267201	221.191406	-11.816406
403589.864611	3.267155	221.191406	-11.816406
403589.868608	3.266724	35.933968	0.463279
403590.846634	3.267260	45.507812	-212.207031
403590.848634	3.266956	45.507812	-212.207031
403590.850636	3.266927	35.936195	0.457559
403591.961617	3.267249	216.503906	-12.402344
403591.963619	3.266991	35.936901	0.424694
403592.944191	3.267649	34.082031	-218.457031
403592.946192	3.267334	34.082031	-218.457031
403592.948191	3.267259	35.939854	0.464620
403594.054727	3.264437	213.671875	-14.550781
403594.056727	3.266955	213.671875	-14.550781
403594.060726	3.266640	213.671875	-14.550781
403594.062728	3.266629	35.932922	0.397090
403595.006790	3.266881	40.039062	-210.253906
403595.008792	3.267095	40.039062	-210.253906
403595.012790	3.266677	40.039062	-210.253906
403595.014793	3.266752	35.934269	0.452523
403596.151757	3.264257	212.109375	-17.480469
403596.153767	3.266976	212.109375	-17.480469
403596.155764	3.267140	212.109375	-17.480469
403596.157765	3.266861	212.109375	-17.480469
403596.159767	3.266762	35.934383	0.359203
403597.103784	3.266818	22.460937	-236.035156
403597.105785	3.267317	22.460937	-236.035156
403597.107786	3.266932	22.460937	-236.035156
403597.109784	3.266879	35.935669	0.376764
403598.217856	3.266815	219.042969	-17.773437
403598.219859	3.267107	219.042969	-17.773437
403598.221860	3.266753	219.042969	-17.773437
403598.223860	3.266784	35.934624	0.470243
403599.167913	3.266961	30.664062	-237.988281
403599.169915	3.267538	30.664062	-237.988281
403599.171917	3.267138	30.664062	-237.988281
403599.173916	3.267017	35.937187	0.453418
403600.313995	3.266233	223.046875	-20.605469
403600.315997	3.267536	223.046875	-20.605469
403600.317998	3.267255	223.046875	-20.605469
403600.319997	3.267118	35.938293	0.411059
403601.266958	3.267732	25.976562	-259.765625
403601.270965	3.267252	25.976562	-259.765625
403601.272967	3.267217	35.939384	0.383984
403602.411534	3.266310	220.507812	-23.535156
403602.413534	3.267537	220.507812	-23.535156
403602.417533	3.267089	220.507812	-23.535156
403602.421534	3.267071	35.937778	0.388477
403603.331577	3.267380	37.304687	-248.242187
403603.333579	3.266945	37.304687	-248.242187
403603.335578	3.266950	35.936451	0.529975
403604.478146	3.267644	226.757812	-24.023437
403604.480149	3.267253	226.757812	-24.023437
403604.482149	3.267163	35.938789	0.474692
403605.426186	3.266096	29.394531	-269.628906
403605.428191	3.267272	29.394531	-269.628906
403605.430189	3.266919	29.394531	-269.628906
403605.432189	3.266898	35.935883	0.428957
403606.574739	3.267736	227.246094	-24.707031
403606.576742	3.267384	227.246094	-24.707031
403606.578742	3.267293	35.940224	0.397732
403607.525323	3.267481	23.828125	-283.007812
403607.527325	3.267273	23.828125	-283.007812
403607.529325	3.267124	35.938362	0.363409
403608.669915	3.266017	226.562500	-25.878906
403608.671919	3.267586	226.562500	-25.878906
403608.673917	3.267242	226.562500	-25.878906
403608.675917	3.267053	35.937584	0.386422
403609.586485	3.263726	27.441406	-277.734375
403609.588487	3.267091	27.441406	-277.734375
403609.590486	3.267291	27.441406	-277.734375
403609.592486	3.266958	27.441406	-277.734375
403609.598484	3.266919	35.936111	0.458949
403610.734577	3.266194	228.808594	-24.511719
403610.736579	3.267215	228.808594	-24.511719
403610.738579	3.266865	228.808594	-24.511719
403610.742576	3.266725	35.933979	0.445978
403611.684618	3.266199	29.589844	-270.214844
403611.686620	3.267581	29.589844	-270.214844
403611.688618	3.267225	29.589844	-270.214844
403611.690621	3.266981	35.936787	0.402294
403612.835611	3.267213	223.632812	-25.195312
403612.837614	3.267068	223.632812	-25.195312
403612.839615	3.267040	35.937435	0.386735
403613.749649	3.266615	40.136719	-246.679687
403613.751650	3.267100	40.136719	-246.679687
403613.753651	3.266740	40.136719	-246.679687
403613.755650	3.266656	35.933216	0.518384
