time (s)	coil I (A)	last det (V)	int current (uC)
404879.777637	3.267548	309.179687	-38.085937
404879.779636	3.267023	35.937256	0.403056
404880.858151	3.266991	68.847656	-42.382812
404880.860154	3.266735	35.934082	0.279126
404881.872227	3.267291	298.535156	-35.253906
404881.874229	3.267183	298.535156	-35.253906
404881.876229	3.266875	35.935627	0.394957
404882.952244	3.266232	65.234375	-55.664062
404882.954247	3.267252	65.234375	-55.664062
404882.956247	3.266917	65.234375	-55.664062
404882.958248	3.266744	35.934181	0.267129
404883.968371	3.266700	297.363281	-34.472656
404883.970372	3.267168	297.363281	-34.472656
404883.972372	3.266922	297.363281	-34.472656
404883.974372	3.266828	35.935104	0.390000
404885.018429	3.267230	70.800781	-28.613281
404885.020432	3.266948	70.800781	-28.613281
404885.022432	3.266769	35.934456	0.323180
404886.031014	3.262893	306.347656	-37.500000
404886.033016	3.266573	306.347656	-37.500000
404886.037015	3.266592	306.347656	-37.500000
404886.041015	3.266537	306.347656	-37.500000
404886.043016	3.266595	35.932541	0.418648
404887.113589	3.266125	71.679687	-40.527344
404887.115593	3.267280	71.679687	-40.527344
404887.117599	3.266960	71.679687	-40.527344
404887.119596	3.266781	35.934589	0.311473
404888.129633	3.266212	298.730469	-33.593750
404888.131634	3.267287	298.730469	-33.593750
404888.133636	3.266898	298.730469	-33.593750
404888.137635	3.266754	35.934296	0.427299
404889.209675	3.263729	70.605469	-66.113281
404889.211676	3.266890	70.605469	-66.113281
404889.213676	3.267264	70.605469	-66.113281
404889.215676	3.266811	70.605469	-66.113281
404889.217676	3.266799	35.934795	0.261304
404890.225717	3.264303	295.214844	-31.542969
404890.227720	3.267051	295.214844	-31.542969
404890.229719	3.267067	295.214844	-31.542969
404890.231719	3.266877	35.935642	0.382371
404891.307752	3.265583	71.875000	-87.988281
404891.309753	3.267093	71.875000	-87.988281
404891.311756	3.267068	71.875000	-87.988281
404891.313754	3.266768	35.934448	0.260222
404892.291801	3.267131	305.664062	-34.765625
404892.293803	3.267415	305.664062	-34.765625
404892.295803	3.267102	305.664062	-34.765625
404892.299802	3.266985	35.936840	0.546947
404893.373847	3.267163	83.105469	-67.871094
404893.375849	3.266942	83.105469	-67.871094
404893.377849	3.266793	35.934723	0.347187
404894.387939	3.265800	305.273437	-35.058594
404894.389939	3.267304	305.273437	-35.058594
404894.391941	3.267013	305.273437	-35.058594
404894.393939	3.266874	35.935608	0.382633
404895.470019	3.267010	77.929687	-113.378906
404895.472021	3.267508	77.929687	-113.378906
404895.474022	3.267171	77.929687	-113.378906
404895.476022	3.267103	35.938133	0.309577
404896.486092	3.266966	293.457031	-35.156250
404896.488093	3.267259	293.457031	-35.156250
404896.490091	3.266953	293.457031	-35.156250
404896.492093	3.266917	35.936089	0.487163
404897.566129	3.265405	71.386719	-153.125000
404897.568130	3.267161	71.386719	-153.125000
404897.570130	3.266982	71.386719	-153.125000
404897.572129	3.266808	35.934891	0.327775
404898.550199	3.266426	306.445312	-44.140625
404898.552202	3.267118	306.445312	-44.140625
404898.554200	3.266707	306.445312	-44.140625
404898.556200	3.266633	35.932957	0.412557
404899.632221	3.267071	72.558594	-142.578125
404899.634223	3.267047	72.558594	-142.578125
404899.636224	3.266832	35.935158	0.327146
404900.646802	3.266428	304.296875	-47.851562
404900.648803	3.267459	304.296875	-47.851562
404900.650804	3.267186	304.296875	-47.851562
404900.652804	3.267134	35.938469	0.348727
404901.696870	3.267481	73.046875	-129.101562
404901.698872	3.267297	73.046875	-129.101562
404901.700872	3.267054	35.937595	0.414902
404902.745452	3.267241	302.343750	-47.167969
404902.747455	3.267094	302.343750	-47.167969
404902.749454	3.266823	35.935051	0.358806
404903.792432	3.266044	62.207031	-139.746094
404903.794432	3.267344	62.207031	-139.746094
404903.796435	3.267018	62.207031	-139.746094
404903.798432	3.266917	35.936089	0.363025
404904.842975	3.267308	292.382812	-40.625000
404904.844978	3.267023	292.382812	-40.625000
404904.846980	3.266887	35.935760	0.393075
404905.857526	3.266622	61.718750	-98.535156
404905.859527	3.267105	61.718750	-98.535156
404905.861528	3.266811	61.718750	-98.535156
404905.863528	3.266861	35.935474	0.397462
404906.939566	3.267553	275.000000	-30.761719
404906.941569	3.267521	275.000000	-30.761719
404906.943569	3.267231	35.939545	0.330513
404907.953598	3.265141	60.839844	-82.324219
404907.955608	3.267070	60.839844	-82.324219
404907.957610	3.266940	60.839844	-82.324219
404907.959610	3.266695	35.933651	0.341033
404909.005669	3.267109	279.492187	-28.613281
404909.007671	3.266746	279.492187	-28.613281
404909.009670	3.266666	35.933331	0.411833
404910.055718	3.267372	70.117187	-71.679687
404910.059719	3.267261	70.117187	-71.679687
404910.061719	3.267279	35.940063	0.330707
404911.066296	3.264530	291.503906	-29.394531
404911.068295	3.266952	291.503906	-29.394531
404911.070295	3.266911	291.503906	-29.394531
404911.072296	3.266734	35.934074	0.423025
404912.148348	3.266053	74.609375	-102.343750
404912.150350	3.267143	74.609375	-102.343750
404912.152351	3.266875	74.609375	-102.343750
404912.154350	3.266740	35.934139	0.338821
404913.164398	3.266599	285.156250	-28.222656
404913.166398	3.267690	285.156250	-28.222656
404913.168398	3.267333	285.156250	-28.222656
404913.170400	3.267233	35.939560	0.399115
404914.246422	3.267241	78.613281	-121.679687
404914.248424	3.267439	78.613281	-121.679687
404914.250424	3.267051	78.613281	-121.679687
404914.252424	3.266994	35.936935	0.330834
404915.262992	3.267220	289.550781	-31.347656
404915.264993	3.266989	289.550781	-31.347656
404915.266993	3.266745	35.934189	0.358915
404916.343041	3.266599	70.800781	-170.605469
404916.345042	3.267258	70.800781	-170.605469
404916.347041	3.266988	70.800781	-170.605469
404916.349042	3.266900	35.935902	0.323906
404917.325061	3.265216	295.019531	-36.816406
404917.327064	3.267302	295.019531	-36.816406
404917.329063	3.267168	295.019531	-36.816406
404917.331064	3.267010	35.937115	0.397562
404918.407122	3.266380	75.976562	-154.882812
404918.409124	3.267317	75.976562	-154.882812
404918.411124	3.266981	75.976562	-154.882812
404918.415124	3.266850	35.935352	0.369824
404919.423149	3.266477	288.476562	-37.988281
404919.425151	3.267265	288.476562	-37.988281
404919.427150	3.266898	288.476562	-37.988281
404919.429151	3.266809	35.934898	0.380756
404920.503208	3.264278	63.378906	-204.101562
404920.505209	3.267281	63.378906	-204.101562
404920.507211	3.267382	63.378906	-204.101562
404920.509209	3.267081	63.378906	-204.101562
404920.511209	3.267038	35.937416	0.345825
404921.519280	3.264814	285.253906	-38.085937
404921.521281	3.267172	285.253906	-38.085937
404921.523280	3.267074	285.253906	-38.085937
404921.525281	3.266892	35.935810	0.364357
404922.571301	3.267500	72.851562	-168.554687
404922.573302	3.267127	72.851562	-168.554687
404922.575304	3.267027	35.937294	0.474079
404923.619837	3.267273	276.757812	-36.132812
404923.621840	3.266941	276.757812	-36.132812
404923.623841	3.266918	35.936096	0.394946
404924.665934	3.266248	66.992187	-191.699219
404924.667936	3.267168	66.992187	-191.699219
404924.669936	3.266818	66.992187	-191.699219
404924.671937	3.266660	35.933258	0.346090
404925.681977	3.266762	287.109375	-38.476562
404925.683977	3.267408	287.109375	-38.476562
404925.685977	3.267127	287.109375	-38.476562
404925.687976	3.267077	35.937851	0.396541
404926.762052	3.264565	62.500000	-210.253906
404926.766052	3.267150	62.500000	-210.253906
404926.768054	3.266806	62.500000	-210.253906
404926.770054	3.266780	35.934582	0.337961
404927.778096	3.265298	286.328125	-37.109375
404927.780097	3.267329	286.328125	-37.109375
404927.784097	3.267216	286.328125	-37.109375
404927.786098	3.266988	35.936867	0.360377
404928.827074	3.266057	72.753906	-173.925781
404928.829076	3.267456	72.753906	-173.925781
404928.831076	3.267125	72.753906	-173.925781
404928.833077	3.267016	35.937180	0.403583
404929.845116	3.267470	287.109375	-34.960937
404929.847118	3.267120	287.109375	-34.960937
404929.849118	3.267056	35.937622	0.420309
404930.925155	3.266715	73.925781	-164.941406
404930.927157	3.267243	73.925781	-164.941406
404930.929158	3.266878	73.925781	-164.941406
404930.931157	3.266771	35.934483	0.440076
404931.939155	3.264170	278.222656	-29.980469
404931.941157	3.267242	278.222656	-29.980469
404931.943156	3.267472	278.222656	-29.980469
404931.945158	3.267196	278.222656	-29.980469
404931.947158	3.267047	35.937523	0.380821
404933.021192	3.265661	72.558594	-164.941406
404933.023192	3.267350	72.558594	-164.941406
404933.025195	3.267104	72.558594	-164.941406
404933.031191	3.266948	35.936424	0.361771
404934.003771	3.264580	282.519531	-28.125000
404934.005773	3.267089	282.519531	-28.125000
404934.007773	3.267034	282.519531	-28.125000
404934.009773	3.266771	35.934483	0.446195
404935.117832	3.264512	65.527344	-176.171875
404935.119842	3.267176	65.527344	-176.171875
404935.121845	3.267224	65.527344	-176.171875
404935.123845	3.267004	35.937042	0.315635
404936.101891	3.266387	277.246094	-25.976562
404936.103893	3.267167	277.246094	-25.976562
404936.105894	3.266911	277.246094	-25.976562
404936.107893	3.266698	35.933678	0.430873
404937.181926	2.124391	62.695312	-146.191406
404937.183927	3.266884	62.695312	-146.191406
404937.185927	3.267307	62.695312	-146.191406
404937.187930	3.266898	62.695312	-146.191406
404937.189929	3.266834	35.935173	0.330384
404938.199923	3.267257	270.996094	-25.000000
404938.201922	3.267486	270.996094	-25.000000
404938.203924	3.267089	270.996094	-25.000000
404938.205922	3.266996	35.936954	0.415263
404939.248485	3.266861	62.500000	-111.816406
404939.250487	3.267096	62.500000	-111.816406
404939.252489	3.266796	62.500000	-111.816406
404939.254487	3.266766	35.934429	0.377411
404940.297113	3.266995	267.773437	-26.269531
404940.299117	3.267018	267.773437	-26.269531
404940.301117	3.266836	267.773437	-26.269531
404940.303115	3.266811	35.934925	0.649786
404941.345127	3.267085	49.316406	-172.460937
404941.347131	3.267718	49.316406	-172.460937
404941.349137	3.267403	49.316406	-172.460937
404941.351133	3.267303	35.940334	0.344674
404942.393226	3.266428	265.234375	-29.394531
404942.395228	3.267592	265.234375	-29.394531
404942.397228	3.267242	265.234375	-29.394531
404942.401227	3.267047	35.937515	0.388382
404943.409287	3.266458	57.128906	-170.312500
404943.411290	3.267249	57.128906	-170.312500
404943.413290	3.266906	57.128906	-170.312500
404943.415289	3.266807	35.934872	0.415819
404944.491342	3.267401	260.253906	-31.835937
404944.493342	3.267552	260.253906	-31.835937
404944.495347	3.267326	260.253906	-31.835937
404944.497347	3.267205	35.939251	0.559558
404945.507395	3.267132	57.910156	-199.218750
404945.509399	3.267161	57.910156	-199.218750
404945.511400	3.266840	35.935238	0.385987
404946.554349	3.265404	274.316406	-37.500000
404946.556351	3.267317	274.316406	-37.500000
404946.558351	3.267138	274.316406	-37.500000
404946.560351	3.266915	35.936062	0.399377
404947.604433	3.267352	56.738281	-230.859375
404947.606436	3.267520	56.738281	-230.859375
404947.608436	3.267246	56.738281	-230.859375
404947.610436	3.267156	35.938721	0.654617
404948.653035	3.267445	269.921875	-36.035156
404948.655037	3.267508	269.921875	-36.035156
404948.657037	3.267139	35.938534	0.362872
404949.701685	3.267081	60.449219	-237.109375
404949.703686	3.267142	60.449219	-237.109375
404949.705688	3.266794	35.934731	0.364224
404950.716233	3.266033	272.363281	-34.863281
404950.718235	3.267284	272.363281	-34.863281
404950.720235	3.266925	272.363281	-34.863281
404950.722233	3.266859	35.935448	0.399891
404951.764268	3.265051	67.480469	-215.820312
404951.766270	3.265151	67.480469	-215.820312
404951.768270	3.266985	67.480469	-215.820312
404951.770271	3.266793	35.934723	0.433498
404952.814301	3.266804	272.070312	-33.007812
404952.816304	3.267175	272.070312	-33.007812
404952.818302	3.266812	272.070312	-33.007812
404952.820303	3.266776	35.934536	0.502354
404953.864352	3.267600	68.261719	-214.257812
404953.866356	3.267289	68.261719	-214.257812
404953.868355	3.267212	35.939331	0.339657
404954.880941	3.267140	279.394531	-31.738281
404954.882942	3.266796	35.934757	0.389517
404955.957928	3.263258	66.406250	-221.386719
404955.959929	3.266835	66.406250	-221.386719
404955.961929	3.267237	66.406250	-221.386719
404955.963929	3.266898	66.406250	-221.386719
404955.965931	3.266840	35.935246	0.384700
404956.975983	3.267031	263.183594	-26.855469
404956.977985	3.267136	263.183594	-26.855469
404956.979985	3.266860	263.183594	-26.855469
404956.981985	3.266858	35.935440	0.388626
404958.055995	3.265960	61.523437	-238.085937
404958.057999	3.267435	61.523437	-238.085937
404958.061998	3.266977	61.523437	-238.085937
404958.063996	3.267006	35.937061	0.341520
404959.040039	2.551534	272.851562	-26.953125
404959.042040	3.267192	272.851562	-26.953125
404959.044040	3.266881	272.851562	-26.953125
404959.046048	3.266752	35.934269	0.477696
404960.120121	3.265253	69.335937	-206.054687
404960.122121	3.267212	69.335937	-206.054687
404960.124121	3.267183	69.335937	-206.054687
404960.126120	3.266831	35.935139	0.403690
404961.138147	3.267423	270.312500	-25.097656
404961.140150	3.267196	270.312500	-25.097656
404961.142149	3.267022	35.937237	0.413527
404962.219152	3.267118	70.312500	-199.023437
404962.221156	3.267102	70.312500	-199.023437
404962.223155	3.266789	35.934677	0.363768
404963.235185	3.267811	254.882812	-21.679687
404963.237188	3.267450	254.882812	-21.679687
404963.239188	3.267358	35.940933	0.376354
404964.315287	3.266252	62.890625	-226.269531
404964.317288	3.267262	62.890625	-226.269531
404964.319288	3.266982	62.890625	-226.269531
404964.321289	3.266956	35.936512	0.338462
404965.297333	3.265159	263.281250	-22.753906
404965.299335	3.267505	263.281250	-22.753906
404965.301335	3.267462	263.281250	-22.753906
404965.303337	3.267172	35.938889	0.436810
404966.379391	3.266213	71.777344	-191.406250
404966.381393	3.267330	71.777344	-191.406250
404966.385391	3.266913	71.777344	-191.406250
404966.387393	3.266906	35.935963	0.395083
404967.395974	3.266863	261.230469	-21.777344
404967.397974	3.267390	261.230469	-21.777344
404967.399976	3.266933	261.230469	-21.777344
404967.401976	3.266864	35.935501	0.414406
404968.476498	3.266127	65.625000	-216.796875
404968.478501	3.267440	65.625000	-216.796875
404968.480500	3.267141	65.625000	-216.796875
404968.482499	3.267016	35.937180	0.353720
404969.492574	3.266413	250.976562	-20.312500
404969.494574	3.267382	250.976562	-20.312500
404969.496574	3.266988	250.976562	-20.312500
404969.498575	3.266824	35.935059	0.372253
404970.574624	3.266829	62.500000	-231.250000
404970.576626	3.267145	62.500000	-231.250000
404970.578626	3.266787	62.500000	-231.250000
404970.582625	3.266708	35.933792	0.544117
404971.556671	3.266335	264.062500	-22.656250
404971.558674	3.267555	264.062500	-22.656250
404971.560673	3.267230	264.062500	-22.656250
404971.562672	3.267116	35.938278	0.435819
404972.640718	3.267774	66.113281	-221.777344
404972.642720	3.267315	66.113281	-221.777344
404972.644723	3.267309	35.940403	0.400718
404973.654739	3.266904	253.222656	-21.093750
404973.656740	3.267102	253.222656	-21.093750
404973.658743	3.266766	253.222656	-21.093750
404973.660740	3.266757	35.934326	0.399584
404974.734800	3.265472	62.792969	-239.453125
404974.736801	3.267177	62.792969	-239.453125
404974.740799	3.266727	62.792969	-239.453125
404974.742801	3.266757	35.934326	0.364337
404975.750842	2.369372	250.292969	-21.289062
404975.752845	3.267247	250.292969	-21.289062
404975.754846	3.266964	250.292969	-21.289062
404975.756844	3.266769	35.934456	0.364016
404976.800869	3.267690	73.144531	-205.273437
404976.802871	3.267671	73.144531	-205.273437
404976.804870	3.267346	35.940811	0.803354
404977.816885	3.267708	261.230469	-24.023437
404977.818887	3.267580	261.230469	-24.023437
404977.820887	3.267342	35.940758	0.439017
404978.896943	3.266509	63.769531	-243.261719
404978.898943	3.267622	63.769531	-243.261719
404978.900944	3.267130	63.769531	-243.261719
404978.902944	3.267029	35.937321	0.370535
404979.914955	3.267218	259.765625	-25.390625
404979.916957	3.266934	259.765625	-25.390625
404979.918957	3.266847	35.935314	0.371976
404980.993543	3.266095	59.277344	-261.035156
404980.995547	3.267702	59.277344	-261.035156
404980.997547	3.267530	59.277344	-261.035156
404981.001545	3.267274	35.940014	0.374970
404982.012087	3.267246	244.335937	-24.804687
404982.014090	3.266920	244.335937	-24.804687
404982.016089	3.266841	35.935253	0.368138
404983.060128	3.267255	65.136719	-241.406250
404983.062130	3.266982	65.136719	-241.406250
404983.064129	3.266744	35.934181	0.412528
404984.073142	3.264043	261.816406	-30.078125
404984.075145	3.267313	261.816406	-30.078125
404984.077144	3.267549	261.816406	-30.078125
404984.079143	3.267089	261.816406	-30.078125
404984.081145	3.267059	35.937649	0.437868
404985.155191	3.266089	52.734375	-283.007812
404985.157193	3.267772	52.734375	-283.007812
404985.159193	3.267458	52.734375	-283.007812
404985.161194	3.267346	35.940811	0.354803
404986.171254	2.901773	254.687500	-30.175781
404986.173255	3.267561	254.687500	-30.175781
404986.175255	3.267186	254.687500	-30.175781
404986.177255	3.267001	35.937008	0.390416
404987.219297	3.265135	60.742187	-255.175781
404987.221297	3.267258	60.742187	-255.175781
404987.223299	3.267172	60.742187	-255.175781
404987.225305	3.266881	35.935696	0.427048
404988.271361	3.267037	248.339844	-30.175781
404988.273362	3.266774	248.339844	-30.175781
404988.275361	3.266674	35.933411	0.563027
404989.317361	3.266524	47.656250	-293.164062
404989.319362	3.267214	47.656250	-293.164062
404989.321362	3.266811	47.656250	-293.164062
404989.323363	3.266751	35.934261	0.376208
404990.365361	3.265929	245.605469	-29.394531
404990.367363	3.267314	245.605469	-29.394531
404990.369364	3.267099	245.605469	-29.394531
404990.371363	3.266939	35.936325	0.355747
404991.381396	3.266533	55.078125	-254.199219
404991.383398	3.267617	55.078125	-254.199219
404991.385397	3.267211	55.078125	-254.199219
404991.387398	3.267045	35.937496	0.429392
404992.462328	3.265453	241.796875	-26.953125
404992.464328	3.267143	241.796875	-26.953125
404992.468328	3.266981	241.796875	-26.953125
404992.472327	3.266716	35.933872	0.326898
404993.478903	3.266524	42.382812	-281.640625
404993.480904	3.267384	42.382812	-281.640625
404993.482906	3.267023	42.382812	-281.640625
404993.484905	3.266881	35.935688	0.364926
404994.526917	2.682545	250.488281	-25.976562
404994.528920	3.267251	250.488281	-25.976562
404994.530919	3.266977	250.488281	-25.976562
404994.532918	3.266829	35.935123	0.407874
404995.545551	3.267287	47.070312	-241.699219
404995.547552	3.267242	47.070312	-241.699219
404995.549554	3.266837	35.935207	0.465739
404996.627686	3.267016	237.597656	-19.628906
404996.629687	3.266791	237.597656	-19.628906
404996.631688	3.266753	35.934288	0.366639
404997.640653	3.266845	47.753906	-223.144531
404997.642657	3.267396	47.753906	-223.144531
404997.644660	3.267036	47.753906	-223.144531
404997.646655	3.266886	35.935741	0.395663
404998.690682	3.267297	235.449219	-16.796875
404998.692685	3.266940	235.449219	-16.796875
404998.694685	3.266822	35.935040	0.417151
404999.736767	3.265217	50.195312	-226.757812
404999.738769	3.267300	50.195312	-226.757812
404999.740768	3.267147	50.195312	-226.757812
404999.742769	3.266919	35.936111	0.370294
405000.786830	3.267002	224.023437	-14.453125
405000.788831	3.267227	224.023437	-14.453125
405000.790833	3.266844	224.023437	-14.453125
405000.792832	3.266828	35.935104	0.371041
405001.834892	3.267054	55.664062	-233.203125
405001.836896	3.267711	55.664062	-233.203125
405001.838895	3.267355	55.664062	-233.203125
405001.840895	3.267334	35.940670	0.342805
405002.850955	3.267308	235.253906	-15.820312
405002.852959	3.267693	235.253906	-15.820312
405002.854959	3.267400	235.253906	-15.820312
405002.856958	3.267241	35.939648	0.402579
405003.931008	3.265472	59.375000	-248.144531
405003.933010	3.267244	59.375000	-248.144531
405003.935008	3.267130	59.375000	-248.144531
405003.937010	3.266883	35.935715	0.361271
405004.949100	3.267751	233.593750	-16.601562
405004.951102	3.267430	233.593750	-16.601562
405004.953100	3.267284	35.940121	0.374468
405006.029152	3.266682	54.687500	-280.078125
405006.031154	3.267342	54.687500	-280.078125
405006.033158	3.266931	54.687500	-280.078125
405006.035161	3.266815	35.934963	0.316601
405007.013196	3.267172	247.363281	-19.824219
405007.015199	3.267051	247.363281	-19.824219
405007.017198	3.266816	35.934978	0.424124
405008.093246	3.266291	60.742187	-264.257812
405008.095247	3.267323	60.742187	-264.257812
405008.099245	3.266694	60.742187	-264.257812
405008.101248	3.266851	35.935360	0.385984
405009.109309	3.266858	246.679687	-21.386719
405009.111310	3.267595	246.679687	-21.386719
405009.113311	3.267094	246.679687	-21.386719
405009.115312	3.267072	35.937798	0.389382
405010.193376	3.267145	50.878906	-302.050781
405010.195383	3.266910	35.936008	0.341437
405011.205478	3.264734	237.988281	-21.191406
405011.207478	3.267114	237.988281	-21.191406
405011.209479	3.266999	237.988281	-21.191406
405011.211480	3.266673	35.933403	0.349933
405012.253534	3.263889	62.695312	-263.574219
405012.255537	3.266989	62.695312	-263.574219
405012.257537	3.267300	62.695312	-263.574219
405012.259537	3.266900	62.695312	-263.574219
405012.261537	3.266827	35.935097	0.419593
405013.272549	3.267384	249.609375	-23.437500
405013.274552	3.267086	249.609375	-23.437500
405013.276550	3.267040	35.937435	0.416078
405014.351115	3.264950	53.417969	-295.996094
405014.353118	3.267220	53.417969	-295.996094
405014.355117	3.267104	53.417969	-295.996094
405014.357118	3.266883	35.935715	0.370840
405015.367173	3.265667	233.398437	-20.214844
405015.369175	3.267449	233.398437	-20.214844
405015.371173	3.267262	233.398437	-20.214844
405015.373175	3.267085	35.937939	0.375650
405016.449269	3.266466	49.902344	-307.519531
405016.451271	3.267231	49.902344	-307.519531
405016.453272	3.266893	49.902344	-307.519531
405016.455273	3.266865	35.935520	0.336898
405017.433308	3.267454	242.773437	-18.945312
405017.435307	3.267364	242.773437	-18.945312
405017.437309	3.267092	35.938011	0.460139
405018.513788	3.266656	62.792969	-258.593750
405018.515791	3.267302	62.792969	-258.593750
405018.517790	3.266908	62.792969	-258.593750
405018.519791	3.266826	35.935085	0.394506
405019.530382	3.267155	232.031250	-15.429687
405019.532384	3.267114	232.031250	-15.429687
405019.534382	3.266848	35.935326	0.407159
405020.610502	3.266153	55.468750	-278.125000
405020.612504	3.267447	55.468750	-278.125000
405020.614506	3.267067	55.468750	-278.125000
405020.620502	3.266934	35.936272	0.361588
405021.626544	3.266516	224.609375	-13.476562
405021.628547	3.267581	224.609375	-13.476562
405021.630547	3.267191	224.609375	-13.476562
405021.632548	3.267143	35.938580	0.372610
405022.708622	3.267102	48.730469	-287.695312
405022.710624	3.267161	48.730469	-287.695312
405022.712624	3.266882	48.730469	-287.695312
405022.714626	3.266893	35.935822	0.324140
405023.690697	3.266720	231.640625	-13.378906
405023.692700	3.267815	231.640625	-13.378906
405023.694698	3.267435	231.640625	-13.378906
405023.696698	3.267289	35.940182	0.461875
405024.770774	3.263780	48.046875	-265.039062
405024.772775	3.267308	48.046875	-265.039062
405024.774776	3.267740	48.046875	-265.039062
405024.776776	3.267382	48.046875	-265.039062
405024.778776	3.267452	35.941971	0.360787
405025.788808	3.267259	235.351562	-13.964844
405025.790811	3.267521	235.351562	-13.964844
405025.792809	3.267116	235.351562	-13.964844
405025.794810	3.267112	35.938232	0.447175
405026.838832	3.267658	52.050781	-233.007812
405026.840833	3.267311	52.050781	-233.007812
405026.842835	3.267203	35.939236	0.405930
405027.886895	3.267744	224.902344	-14.257812
405027.888901	3.267448	224.902344	-14.257812
405027.890896	3.267253	35.939781	0.414930
405028.934948	3.267280	39.941406	-278.515625
405028.936951	3.267110	39.941406	-278.515625
405028.938951	3.266901	35.935909	0.351184
405029.983514	3.267397	221.875000	-16.796875
405029.985516	3.267407	221.875000	-16.796875
405029.987516	3.267032	35.937355	0.408742
405030.999611	3.267389	48.535156	-270.312500
405031.001616	3.267159	48.535156	-270.312500
405031.005615	3.266915	35.936069	0.437234
405032.079685	3.266471	226.562500	-20.312500
405032.081684	3.267342	226.562500	-20.312500
405032.083685	3.266918	226.562500	-20.312500
405032.085685	3.266826	35.935085	0.333853
405033.094290	3.265089	41.210937	-315.332031
405033.096290	3.267463	41.210937	-315.332031
405033.098293	3.267469	41.210937	-315.332031
405033.100291	3.267255	35.939800	0.392059
405034.142322	3.263277	240.429687	-24.511719
405034.146323	3.267371	240.429687	-24.511719
405034.148325	3.267068	240.429687	-24.511719
405034.150325	3.267021	35.937229	0.408052
405035.194366	3.267498	37.695312	-339.550781
405035.196368	3.267157	37.695312	-339.550781
405035.198372	3.267002	35.937027	0.352605
405036.240434	3.266014	231.347656	-24.023437
405036.242437	3.267512	231.347656	-24.023437
405036.244437	3.267296	231.347656	-24.023437
405036.246436	3.267133	35.938461	0.370738
405037.256456	3.266175	46.093750	-321.582031
405037.258458	3.267448	46.093750	-321.582031
405037.260458	3.267189	46.093750	-321.582031
405037.262459	3.267143	35.938568	0.456626
405038.304501	3.265042	246.289062	-26.855469
405038.306503	3.267391	246.289062	-26.855469
405038.308504	3.267365	246.289062	-26.855469
405038.310505	3.267063	35.937691	0.406747
405039.354503	3.266952	45.019531	-327.832031
405039.356504	3.267242	45.019531	-327.832031
405039.360502	3.266876	45.019531	-327.832031
405039.362505	3.266905	35.935951	0.493439
405040.404533	3.267256	236.035156	-25.585937
405040.406536	3.266953	236.035156	-25.585937
405040.408536	3.266864	35.935501	0.382619
405041.453133	3.267439	43.945312	-333.007812
405041.455137	3.267371	43.945312	-333.007812
405041.457137	3.266922	35.936138	0.345293
405042.499197	3.266322	228.906250	-24.609375
405042.501199	3.267713	228.906250	-24.609375
405042.503199	3.267466	228.906250	-24.609375
405042.505201	3.267226	35.939491	0.348832
405043.516165	3.267010	54.589844	-303.613281
405043.518168	3.267181	54.589844	-303.613281
405043.520168	3.266819	54.589844	-303.613281
405043.522169	3.266867	35.935539	0.451369
405044.563148	3.264746	234.277344	-25.000000
405044.565148	3.267018	234.277344	-25.000000
405044.567151	3.267056	234.277344	-25.000000
405044.569150	3.266739	35.934128	0.387527
405045.613232	3.266973	41.601562	-343.066406
405045.615233	3.267477	41.601562	-343.066406
405045.617232	3.267138	41.601562	-343.066406
405045.619232	3.267117	35.938286	0.520898
405046.661314	3.266800	228.222656	-24.414062
405046.663316	3.267479	228.222656	-24.414062
405046.665317	3.267094	228.222656	-24.414062
405046.667315	3.266939	35.936325	0.367360
405047.709330	3.265970	41.992187	-341.796875
405047.711332	3.267739	41.992187	-341.796875
405047.713332	3.267368	41.992187	-341.796875
405047.715332	3.267231	35.939545	0.338347
405048.758270	3.266566	218.652344	-22.949219
405048.760273	3.267714	218.652344	-22.949219
405048.762272	3.267295	218.652344	-22.949219
405048.764271	3.267222	35.939445	0.343395
405049.780338	3.266759	48.828125	-321.191406
405049.782340	3.266737	35.934109	0.424091
405050.824372	3.267511	237.500000	-25.683594
405050.826374	3.267155	237.500000	-25.683594
405050.828376	3.267021	35.937229	0.388696
405051.870378	3.264858	37.207031	-353.906250
405051.872380	3.267290	37.207031	-353.906250
405051.874381	3.267292	37.207031	-353.906250
405051.876379	3.266934	35.936272	0.360872
405052.920444	3.266867	227.148437	-23.828125
405052.922447	3.267187	227.148437	-23.828125
405052.924446	3.266894	227.148437	-23.828125
405052.926445	3.266819	35.935005	0.472318
405053.934504	3.264369	42.675781	-334.570312
405053.936506	3.267249	42.675781	-334.570312
405053.938507	3.267547	42.675781	-334.570312
405053.940506	3.267105	42.675781	-334.570312
405053.942505	3.267058	35.937637	0.437202
405055.016551	3.265628	220.410156	-21.875000
405055.018552	3.267155	220.410156	-21.875000
405055.020553	3.266894	220.410156	-21.875000
405055.022553	3.266675	35.933418	0.352073
405056.034565	3.267482	42.382812	-330.175781
405056.036565	3.267179	42.382812	-330.175781
405056.038567	3.267043	35.937469	0.403079
405057.080615	3.265091	228.613281	-21.777344
405057.082618	3.267404	228.613281	-21.777344
405057.084617	3.267308	228.613281	-21.777344
405057.086616	3.267043	35.937469	0.406184
405058.130656	3.266978	34.472656	-343.847656
405058.132657	3.267317	34.472656	-343.847656
405058.134658	3.266837	34.472656	-343.847656
405058.136657	3.266846	35.935307	0.503849
405059.180652	3.267715	215.039062	-17.285156
405059.184656	3.267289	215.039062	-17.285156
405059.186659	3.267241	35.939648	0.379646
405060.196742	3.267384	34.960937	-330.371094
405060.198745	3.266920	34.960937	-330.371094
405060.200746	3.266874	35.935608	0.398017
405061.274778	3.265086	207.617187	-13.085937
405061.276779	3.267320	207.617187	-13.085937
405061.278781	3.267292	207.617187	-13.085937
405061.280779	3.267106	35.938160	0.338676
405062.290856	3.265198	35.839844	-315.917969
405062.292857	3.267254	35.839844	-315.917969
405062.294858	3.267114	35.839844	-315.917969
405062.296857	3.266854	35.935394	0.363436
405063.338911	3.263968	210.449219	-11.230469
405063.340916	3.266867	210.449219	-11.230469
405063.342916	3.267127	210.449219	-11.230469
405063.344915	3.266866	210.449219	-11.230469
405063.346915	3.266778	35.934551	0.410798
405064.390958	3.267295	37.988281	-305.078125
405064.392959	3.266894	37.988281	-305.078125
405064.394959	3.266772	35.934494	0.320114
405065.436956	3.266273	203.027344	-8.691406
405065.438959	3.267704	203.027344	-8.691406
405065.440957	3.267446	203.027344	-8.691406
405065.442957	3.267257	35.939827	0.322385
405066.485056	3.265611	37.988281	-320.117187
405066.487059	3.267440	37.988281	-320.117187
405066.489059	3.267442	37.988281	-320.117187
405066.491060	3.267162	35.938782	0.334364
405067.501168	3.266049	208.789062	-8.203125
405067.503170	3.267514	208.789062	-8.203125
405067.505170	3.267263	208.789062	-8.203125
405067.507169	3.267085	35.937939	0.406116
405068.551235	3.267499	55.468750	-276.464844
405068.553237	3.267430	55.468750	-276.464844
405068.555239	3.267197	35.939163	0.752136
405069.566182	3.266495	222.363281	-9.765625
405069.568184	3.267279	222.363281	-9.765625
405069.570183	3.266843	222.363281	-9.765625
405069.572182	3.266721	35.933926	0.418929
405070.646748	3.265584	55.957031	-294.140625
405070.648750	3.267231	55.957031	-294.140625
405070.650748	3.267051	55.957031	-294.140625
405070.652749	3.266816	35.934978	0.382250
405071.663696	3.266831	211.621094	-10.351562
405071.665700	3.267378	211.621094	-10.351562
405071.667700	3.267004	211.621094	-10.351562
405071.669699	3.266979	35.936768	0.461812
405072.743747	3.265538	45.312500	-336.523437
405072.745749	3.267325	45.312500	-336.523437
405072.747750	3.267195	45.312500	-336.523437
405072.749748	3.267008	35.937088	0.343518
405073.759812	3.265451	206.542969	-11.132812
405073.761814	3.267211	206.542969	-11.132812
405073.765812	3.266804	206.542969	-11.132812
405073.767815	3.266770	35.934467	0.346806
405074.807849	3.264691	56.738281	-305.468750
405074.809850	3.267544	56.738281	-305.468750
405074.811850	3.267536	56.738281	-305.468750
405074.813852	3.267566	35.943230	0.401848
405075.824424	3.266017	217.675781	-13.183594
405075.826427	3.267319	217.675781	-13.183594
405075.828426	3.266928	217.675781	-13.183594
405075.830428	3.266862	35.935482	0.413729
405076.906482	3.267217	46.484375	-339.062500
405076.908483	3.267744	46.484375	-339.062500
405076.910482	3.267384	46.484375	-339.062500
405076.912482	3.267306	35.940369	0.382572
405077.920514	3.263369	213.378906	-13.671875
405077.922516	3.266886	213.378906	-13.671875
405077.924517	3.267285	213.378906	-13.671875
405077.926516	3.266853	213.378906	-13.671875
405077.928517	3.266786	35.934643	0.383852
405079.002588	3.265369	42.773437	-350.488281
405079.004589	3.267219	42.773437	-350.488281
405079.006589	3.267048	42.773437	-350.488281
405079.008590	3.266721	35.933933	0.328653
405080.018633	3.266436	203.320312	-12.304687
405080.020639	3.267598	203.320312	-12.304687
405080.022653	3.267277	203.320312	-12.304687
405080.024657	3.267140	35.938541	0.333496
405081.067200	3.265613	48.242187	-333.398437
405081.069200	3.267176	48.242187	-333.398437
405081.071200	3.266841	48.242187	-333.398437
405081.073201	3.266775	35.934525	0.389617
405082.083213	3.266195	218.066406	-12.207031
405082.085215	3.267399	218.066406	-12.207031
405082.087216	3.267089	218.066406	-12.207031
405082.089216	3.266953	35.936485	0.406014
405083.163256	3.263126	52.246094	-322.167969
405083.165258	3.266936	52.246094	-322.167969
405083.167256	3.267370	52.246094	-322.167969
405083.169256	3.267042	52.246094	-322.167969
405083.171257	3.266876	35.935635	0.354564
405084.179278	3.264208	205.859375	-9.765625
405084.181279	3.267291	205.859375	-9.765625
405084.183280	3.267692	205.859375	-9.765625
405084.185279	3.267228	205.859375	-9.765625
405084.187278	3.267220	35.939419	0.357079
405085.261338	3.265764	46.582031	-334.863281
405085.263340	3.267319	46.582031	-334.863281
405085.265341	3.267140	46.582031	-334.863281
405085.267341	3.266946	35.936405	0.317242
405086.245961	3.267561	220.214844	-8.789062
405086.247963	3.267570	220.214844	-8.789062
405086.249962	3.267307	35.940376	0.798985
405087.325980	3.266050	52.636719	-304.492187
405087.327983	3.267317	52.636719	-304.492187
405087.329982	3.267001	52.636719	-304.492187
405087.331982	3.266919	35.936104	0.365961
405088.340943	3.263979	211.328125	-7.226562
405088.342953	3.264471	211.328125	-7.226562
405088.344955	3.267175	211.328125	-7.226562
405088.346954	3.266838	211.328125	-7.226562
405088.348955	3.266850	35.935352	0.407084
405089.427042	3.267215	41.992187	-324.511719
405089.429047	3.267018	41.992187	-324.511719
405089.431050	3.267084	35.937923	0.320860
405090.443614	3.266709	196.972656	-6.152344
405090.445615	3.266651	196.972656	-6.152344
405090.447616	3.266648	35.933125	0.378184
405091.487680	3.266055	41.699219	-314.453125
405091.489680	3.267209	41.699219	-314.453125
405091.491682	3.266877	41.699219	-314.453125
405091.493681	3.266783	35.934616	0.366680
405092.536222	3.266146	197.949219	-7.128906
405092.538225	3.267251	197.949219	-7.128906
405092.540224	3.266955	197.949219	-7.128906
405092.542223	3.266749	35.934242	0.347917
405093.552272	3.266443	37.304687	-321.484375
405093.554274	3.267213	37.304687	-321.484375
405093.556276	3.266877	37.304687	-321.484375
405093.558275	3.266721	35.933926	0.416415
405094.634302	3.267176	198.242187	-9.082031
405094.636303	3.267295	198.242187	-9.082031
405094.638306	3.267052	198.242187	-9.082031
405094.640305	3.267015	35.937168	0.334000
405095.648853	3.266324	29.492187	-352.636719
405095.652852	3.267664	29.492187	-352.636719
405095.654854	3.267387	29.492187	-352.636719
405095.656854	3.267375	35.941120	0.359202
405096.698951	3.267393	213.964844	-12.890625
405096.700952	3.267325	213.964844	-12.890625
405096.702952	3.267099	35.938091	0.408437
405097.747509	3.267106	20.312500	-391.210937
405097.749510	3.267179	20.312500	-391.210937
405097.751510	3.266922	35.936138	0.687234
405098.795535	3.266750	212.500000	-15.429687
405098.797538	3.267198	212.500000	-15.429687
405098.799537	3.266927	212.500000	-15.429687
405098.801537	3.266910	35.936008	0.406482
405099.811564	3.266805	29.882812	-372.167969
405099.813565	3.267035	29.882812	-372.167969
405099.815564	3.266787	29.882812	-372.167969
405099.817564	3.266657	35.933228	0.388826
405100.893635	3.267212	206.445312	-16.015625
405100.897634	3.266832	206.445312	-16.015625
405100.899640	3.266825	35.935078	0.320061
405101.910598	3.267229	25.195312	-391.210937
405101.912600	3.266874	25.195312	-391.210937
405101.914600	3.266796	35.934757	0.348754
405102.956614	3.266252	216.308594	-18.457031
405102.958616	3.267195	216.308594	-18.457031
405102.960615	3.266785	216.308594	-18.457031
405102.962615	3.266730	35.934032	0.401501
405103.971169	3.264427	38.378906	-358.789062
405103.973171	3.267447	38.378906	-358.789062
405103.975170	3.267774	38.378906	-358.789062
405103.977171	3.267365	38.378906	-358.789062
405103.979171	3.267391	35.941299	0.433240
405105.053209	3.265759	207.324219	-17.578125
405105.057210	3.267147	207.324219	-17.578125
405105.059212	3.266984	207.324219	-17.578125
405105.061212	3.266970	35.936672	0.347697
405106.069238	3.265667	35.351562	-369.921875
405106.071240	3.267143	35.351562	-369.921875
405106.075239	3.266588	35.351562	-369.921875
405106.077241	3.266708	35.933792	0.392947
405107.151836	3.267029	205.566406	-17.871094
405107.153838	3.267075	205.566406	-17.871094
405107.155837	3.266786	35.934643	0.299300
405108.165841	3.264690	32.519531	-378.417969
405108.167840	3.267152	32.519531	-378.417969
405108.169841	3.267072	32.519531	-378.417969
405108.171847	3.266784	35.934624	0.344734
405109.215876	3.266694	214.843750	-18.554687
405109.217880	3.267253	214.843750	-18.554687
405109.219879	3.266807	214.843750	-18.554687
405109.221879	3.266778	35.934563	0.378572
405110.232824	3.267416	34.960937	-370.410156
405110.234827	3.267118	34.960937	-370.410156
405110.236826	3.267000	35.937000	0.407482
405111.312896	3.267143	205.273437	-17.187500
405111.314899	3.267648	205.273437	-17.187500
405111.316898	3.267340	205.273437	-17.187500
405111.318899	3.267231	35.939537	0.343881
405112.329453	3.267250	34.765625	-369.335937
405112.331454	3.267134	34.765625	-369.335937
405112.333456	3.266939	35.936325	0.369139
405113.379431	3.267103	215.234375	-17.480469
405113.381433	3.266832	215.234375	-17.480469
405113.383432	3.266764	35.934402	0.395149
405114.426023	3.266770	24.218750	-393.554687
405114.428025	3.267071	24.218750	-393.554687
405114.430023	3.266779	24.218750	-393.554687
405114.432026	3.266714	35.933853	0.451763
405115.474622	3.267324	208.691406	-14.941406
405115.476624	3.267499	208.691406	-14.941406
405115.478623	3.267242	208.691406	-14.941406
405115.480625	3.267175	35.938923	0.377006
405116.488670	3.264006	27.636719	-379.101562
405116.490698	3.266911	27.636719	-379.101562
405116.492700	3.267117	27.636719	-379.101562
405116.494701	3.266770	27.636719	-379.101562
405116.496700	3.266709	35.933800	0.389765
405117.570776	3.265869	198.046875	-11.718750
405117.572779	3.267205	198.046875	-11.718750
405117.574778	3.266948	198.046875	-11.718750
405117.576777	3.266775	35.934525	0.329292
405118.587310	3.266940	25.585937	-378.417969
405118.589313	3.267495	25.585937	-378.417969
405118.591313	3.267038	25.585937	-378.417969
405118.593313	3.266988	35.936867	0.346027
405119.637355	3.267516	203.417969	-9.960937
405119.639357	3.267235	203.417969	-9.960937
405119.641356	3.267035	35.937389	0.401149
405120.683929	3.266291	21.289062	-382.714844
405120.685932	3.267339	21.289062	-382.714844
405120.687930	3.267070	21.289062	-382.714844
405120.689931	3.266902	35.935921	0.298810
405121.733998	3.267694	192.675781	-6.250000
405121.736000	3.267563	192.675781	-6.250000
405121.738002	3.267266	35.939922	0.329401
405122.750027	3.267137	40.625000	-322.558594
405122.752028	3.266928	40.625000	-322.558594
405122.754030	3.266702	35.933720	0.382918
405123.796018	3.264810	191.894531	-4.492187
405123.798019	3.267197	191.894531	-4.492187
405123.800020	3.267292	191.894531	-4.492187
405123.804020	3.266953	35.936478	0.396075
405124.846060	3.266600	38.378906	-339.550781
405124.848064	3.267127	38.378906	-339.550781
405124.850062	3.266808	38.378906	-339.550781
405124.854066	3.266755	35.934307	0.358097
405125.894137	3.266277	186.132812	-4.101562
405125.896139	3.267285	186.132812	-4.101562
405125.898140	3.266970	186.132812	-4.101562
405125.900139	3.266800	35.934803	0.335762
405126.944740	3.267267	44.531250	-335.742187
405126.946743	3.266897	44.531250	-335.742187
405126.948743	3.266769	35.934456	0.341062
405127.958763	3.266509	190.332031	-4.394531
405127.960765	3.267196	190.332031	-4.394531
405127.962764	3.266911	190.332031	-4.394531
405127.964765	3.266834	35.935173	0.380473
405129.040775	3.267059	43.164062	-353.125000
405129.042777	3.267123	43.164062	-353.125000
405129.044777	3.266900	43.164062	-353.125000
405129.046777	3.266783	35.934616	0.320748
405130.055742	3.266361	184.960937	-4.980469
405130.059744	3.266839	184.960937	-4.980469
405130.061744	3.266695	184.960937	-4.980469
405130.063744	3.266660	35.933258	0.338112
405131.103772	3.265798	49.121094	-341.503906
405131.107773	3.267160	49.121094	-341.503906
405131.109774	3.266893	49.121094	-341.503906
405131.111774	3.266955	35.936504	0.389109
405132.119772	3.266141	196.191406	-6.542969
405132.121774	3.267717	196.191406	-6.542969
405132.123775	3.267444	196.191406	-6.542969
405132.125775	3.267344	35.940784	0.402782
405133.201789	3.266778	41.210937	-367.480469
405133.203792	3.267436	41.210937	-367.480469
405133.205793	3.267040	41.210937	-367.480469
405133.207791	3.267077	35.937851	0.347220
405134.213308	2.029995	192.187500	-7.421875
405134.218550	3.267391	192.187500	-7.421875
405134.220552	3.267277	192.187500	-7.421875
405134.222551	3.267063	35.937691	0.358728
405135.298541	3.266513	39.746094	-371.484375
405135.300543	3.267568	39.746094	-371.484375
405135.302544	3.267217	39.746094	-371.484375
405135.304543	3.267092	35.938011	0.312997
405136.314589	3.266595	189.941406	-7.714844
405136.316597	3.267534	189.941406	-7.714844
405136.318598	3.267175	189.941406	-7.714844
405136.320599	3.267085	35.937939	0.315791
405137.365175	3.267611	42.968750	-362.988281
405137.369175	3.267160	42.968750	-362.988281
405137.371177	3.267151	35.938663	0.382052
405138.379249	3.266754	195.605469	-8.007812
405138.381252	3.267437	195.605469	-8.007812
405138.383251	3.267423	195.605469	-8.007812
405138.385251	3.266919	35.936111	0.392649
405139.459297	3.265318	41.015625	-368.750000
405139.461297	3.267537	41.015625	-368.750000
405139.463297	3.267441	41.015625	-368.750000
405139.467296	3.267156	35.938721	0.319460
405140.475876	3.266387	187.988281	-6.640625
405140.477876	3.267475	187.988281	-6.640625
405140.479878	3.267189	187.988281	-6.640625
405140.481877	3.267104	35.938145	0.330039
405141.557915	3.267113	33.007812	-389.257812
405141.559918	3.267553	33.007812	-389.257812
405141.561918	3.267115	33.007812	-389.257812
405141.563918	3.267126	35.938381	0.307545
405142.539955	3.265483	199.316406	-5.273437
405142.541956	3.267171	199.316406	-5.273437
405142.543956	3.266858	199.316406	-5.273437
405142.545955	3.266766	35.934429	0.426824
405143.624001	3.267162	44.824219	-355.566406
405143.626004	3.266784	44.824219	-355.566406
405143.628002	3.266645	35.933098	0.347353
405144.636576	3.264746	188.281250	-3.906250
405144.638577	3.267224	188.281250	-3.906250
405144.640576	3.267195	188.281250	-3.906250
405144.642576	3.266927	35.936203	0.373703
405145.718612	3.266244	34.863281	-376.171875
405145.720614	3.267591	34.863281	-376.171875
405145.722613	3.267217	34.863281	-376.171875
405145.724614	3.267178	35.938957	0.310934
405146.736682	3.267106	184.570312	-2.832031
405146.738683	3.266787	184.570312	-2.832031
405146.740684	3.266718	35.933899	0.340683
405147.785263	3.267669	35.742187	-363.964844
405147.787267	3.267270	35.742187	-363.964844
405147.789277	3.267197	35.939163	0.357969
405148.833322	3.267550	178.906250	-2.246094
405148.835323	3.267387	178.906250	-2.246094
405148.839322	3.267146	35.938606	0.325002
405149.879896	3.265419	25.488281	-382.128906
405149.881899	3.267201	25.488281	-382.128906
405149.883899	3.266945	25.488281	-382.128906
405149.885901	3.266757	35.934326	0.294857
405150.895896	3.266099	186.132812	-3.027344
405150.897906	3.267291	186.132812	-3.027344
405150.899906	3.267018	186.132812	-3.027344
405150.903904	3.266794	35.934731	0.379381
405151.943947	3.264996	34.570312	-349.707031
405151.945949	3.267176	34.570312	-349.707031
405151.947951	3.267188	34.570312	-349.707031
405151.949948	3.266892	35.935810	0.416747
405152.994000	3.266929	187.988281	-5.175781
405152.996000	3.267080	187.988281	-5.175781
405152.998000	3.266845	187.988281	-5.175781
405153.000001	3.266752	35.934269	0.475736
405154.044922	3.267336	16.210937	-404.980469
405154.046923	3.267044	35.937481	0.674372
405155.090979	3.267006	185.644531	-7.128906
405155.092981	3.267511	185.644531	-7.128906
405155.094981	3.267178	185.644531	-7.128906
405155.096980	3.267045	35.937496	0.420033
405156.107024	3.266941	29.589844	-374.414062
405156.109026	3.267313	29.589844	-374.414062
405156.111027	3.266952	29.589844	-374.414062
405156.113028	3.266886	35.935741	0.392705
405157.155611	3.267205	200.195312	-9.765625
405157.157611	3.267550	200.195312	-9.765625
405157.159611	3.267159	200.195312	-9.765625
405157.161611	3.267040	35.937443	0.586218
405158.203654	3.267017	17.773437	-411.523437
405158.205656	3.267696	17.773437	-411.523437
405158.207655	3.267239	17.773437	-411.523437
405158.209656	3.267127	35.938393	0.316508
405159.251704	3.265919	189.746094	-10.839844
405159.253703	3.267221	189.746094	-10.839844
405159.255705	3.266901	189.746094	-10.839844
405159.257704	3.266739	35.934128	0.360314
405160.267731	3.266359	26.855469	-392.968750
405160.269730	3.267276	26.855469	-392.968750
405160.271733	3.266923	26.855469	-392.968750
405160.273732	3.266844	35.935280	0.398430
405161.347810	3.263370	182.519531	-11.328125
405161.349812	3.266794	182.519531	-11.328125
405161.351813	3.267288	182.519531	-11.328125
405161.353814	3.266859	182.519531	-11.328125
405161.355814	3.266843	35.935272	0.334572
405162.367894	3.267313	28.906250	-390.625000
405162.369895	3.266883	28.906250	-390.625000
405162.371894	3.266814	35.934952	0.365923
405163.412887	3.265537	199.316406	-12.890625
405163.414889	3.265676	199.316406	-12.890625
405163.416887	3.267306	199.316406	-12.890625
405163.418888	3.267057	35.937630	0.388741
405164.463446	3.265746	22.460937	-407.421875
405164.465449	3.267169	22.460937	-407.421875
405164.467448	3.266946	35.936405	0.302068
405165.511478	3.267360	192.871094	-12.207031
405165.513480	3.267528	192.871094	-12.207031
405165.517481	3.267223	192.871094	-12.207031
405165.519481	3.267173	35.938908	0.358123
405166.528020	3.267254	32.812500	-383.691406
405166.530021	3.267040	32.812500	-383.691406
405166.532020	3.266871	35.935581	0.398552
405167.608575	3.266832	177.929687	-10.449219
405167.610576	3.267158	177.929687	-10.449219
405167.612575	3.266754	177.929687	-10.449219
405167.614575	3.266725	35.933979	0.301874
405168.622636	3.263939	19.531250	-415.039062
405168.624637	3.266964	19.531250	-415.039062
405168.626636	3.266918	19.531250	-415.039062
405168.628638	3.266716	35.933872	0.343761
405169.674668	3.267409	184.277344	-10.058594
405169.676669	3.266975	184.277344	-10.058594
405169.678671	3.266978	35.936760	0.377609
405170.720723	3.266112	19.628906	-412.988281
405170.722726	3.267208	19.628906	-412.988281
405170.724728	3.266853	19.628906	-412.988281
405170.726727	3.266763	35.934395	0.302285
405171.769278	3.266059	184.375000	-7.910156
405171.771280	3.267495	184.375000	-7.910156
405171.773279	3.267122	184.375000	-7.910156
405171.775281	3.267040	35.937443	0.335479
405172.785831	3.266707	27.343750	-388.183594
405172.787834	3.267168	27.343750	-388.183594
405172.789833	3.266713	27.343750	-388.183594
405172.791835	3.266714	35.933853	0.394571
405173.833858	3.265996	189.355469	-6.152344
405173.835858	3.266994	189.355469	-6.152344
405173.837857	3.266719	189.355469	-6.152344
405173.839858	3.266554	35.932098	0.395978
405174.883899	3.267347	24.023437	-389.257812
405174.887899	3.266927	24.023437	-389.257812
405174.889901	3.266852	35.935368	0.312007
405175.930858	3.265998	178.710937	-3.417969
405175.932859	3.267038	178.710937	-3.417969
405175.934859	3.266643	178.710937	-3.417969
405175.936859	3.266548	35.932026	0.335263
405176.980885	3.267251	22.265625	-393.847656
405176.982892	3.267110	22.265625	-393.847656
405176.984892	3.266873	35.935600	0.305363
405177.997441	3.267202	178.515625	-1.660156
405177.999442	3.266891	178.515625	-1.660156
405178.001441	3.266759	35.934349	0.407910
405179.043986	3.266106	36.523437	-361.328125
405179.045986	3.267000	36.523437	-361.328125
405179.047987	3.266687	36.523437	-361.328125
405179.049988	3.266597	35.932568	0.389252
405180.094059	3.267334	178.125000	-0.976562
405180.096061	3.267213	178.125000	-0.976562
405180.098061	3.266948	35.936432	0.337045
405181.141002	3.266021	36.328125	-373.242187
405181.143004	3.267039	36.328125	-373.242187
405181.145003	3.266649	36.328125	-373.242187
405181.147002	3.266705	35.933754	0.361885
405182.159041	3.267650	183.203125	-0.781250
405182.163040	3.267140	183.203125	-0.781250
405182.165042	3.267164	35.938805	0.391090
405183.239651	3.267384	40.136719	-373.437500
405183.243650	3.267082	40.136719	-373.437500
405183.245654	3.266990	35.936893	0.345894
405184.254207	3.266426	168.945312	-1.367187
405184.256207	3.267210	168.945312	-1.367187
405184.258209	3.266847	168.945312	-1.367187
405184.260208	3.266720	35.933914	0.327661
405185.336721	3.267616	37.109375	-387.304687
405185.338723	3.267461	37.109375	-387.304687
405185.340723	3.267282	35.940102	0.311434
405186.317342	3.264936	186.816406	-1.953125
405186.319346	3.267313	186.816406	-1.953125
405186.321346	3.267340	186.816406	-1.953125
405186.323346	3.267057	35.937630	0.403365
405187.401438	3.267401	48.242187	-362.890625
405187.403440	3.267123	48.242187	-362.890625
405187.405439	3.267040	35.937435	0.378276
405188.415994	3.266984	179.687500	-2.734375
405188.417993	3.267595	179.687500	-2.734375
405188.419993	3.267279	179.687500	-2.734375
405188.421993	3.267205	35.939259	0.359226
405189.496071	3.265174	36.523437	-391.992187
405189.498073	3.267301	36.523437	-391.992187
405189.502072	3.266967	36.523437	-391.992187
405189.504074	3.266932	35.936256	0.337093
405190.514123	3.267202	176.953125	-3.125000
405190.516124	3.266942	176.953125	-3.125000
405190.518125	3.266861	35.935474	0.308626
405191.594697	3.266865	29.687500	-406.933594
405191.596702	3.267176	29.687500	-406.933594
405191.598707	3.266837	29.687500	-406.933594
405191.600709	3.266792	35.934711	0.438101
405192.576717	3.265963	184.765625	-3.027344
405192.578719	3.267213	184.765625	-3.027344
405192.580719	3.266842	184.765625	-3.027344
405192.582718	3.266791	35.934704	0.391740
405193.660798	3.266434	37.890625	-388.085937
405193.662800	3.266834	37.890625	-388.085937
405193.664798	3.266774	35.934509	0.351293
405194.674792	3.266711	183.496094	-2.539062
405194.676795	3.267092	183.496094	-2.539062
405194.678795	3.266762	183.496094	-2.539062
405194.680795	3.266695	35.933651	0.326537
405195.755719	3.266860	40.234375	-382.519531
405195.757720	3.267669	40.234375	-382.519531
405195.759719	3.267328	40.234375	-382.519531
405195.761719	3.267177	35.938950	0.326283
405196.771775	3.267213	173.437500	-1.367187
405196.773777	3.267614	173.437500	-1.367187
405196.775776	3.267203	173.437500	-1.367187
405196.777776	3.267179	35.938965	0.290184
