time (s)	coil I (A)	last det (V)	int current (uC)
402866.277650	3.265194	251.171875	-12.988281
402866.279652	3.267065	251.171875	-12.988281
402866.281653	3.266942	251.171875	-12.988281
402866.283653	3.266757	35.934334	0.528996
402867.261673	3.266881	62.890625	-38.183594
402867.263674	3.267676	62.890625	-38.183594
402867.265674	3.267197	62.890625	-38.183594
402867.267677	3.267162	35.938782	0.367468
402868.376221	3.267193	236.328125	-9.277344
402868.378223	3.267479	236.328125	-9.277344
402868.380224	3.267168	236.328125	-9.277344
402868.382223	3.267154	35.938694	0.605211
402869.360257	3.267352	53.222656	-57.226562
402869.362258	3.266987	53.222656	-57.226562
402869.364259	3.266865	35.935520	0.323196
402870.472810	3.266392	230.566406	-8.203125
402870.474811	3.267234	230.566406	-8.203125
402870.476811	3.266810	230.566406	-8.203125
402870.478811	3.266742	35.934166	0.470067
402871.422876	3.266355	49.902344	-49.218750
402871.424877	3.267513	49.902344	-49.218750
402871.426878	3.267170	49.902344	-49.218750
402871.428878	3.267093	35.938019	0.358918
402872.570967	3.267284	229.199219	-8.886719
402872.574965	3.267114	229.199219	-8.886719
402872.576970	3.267055	35.937603	0.473598
402873.520982	3.266969	43.945312	-76.757812
402873.522983	3.267224	43.945312	-76.757812
402873.524985	3.266880	43.945312	-76.757812
402873.526984	3.266853	35.935379	0.316370
402874.665588	3.263171	231.835937	-11.914062
402874.667593	3.266986	231.835937	-11.914062
402874.669598	3.267416	231.835937	-11.914062
402874.671601	3.266978	231.835937	-11.914062
402874.673606	3.266980	35.936779	0.443633
402875.583624	3.264781	47.460937	-78.906250
402875.585626	3.267064	47.460937	-78.906250
402875.587627	3.267079	47.460937	-78.906250
402875.589627	3.266891	35.935795	0.383715
402876.763674	3.265667	226.171875	-12.402344
402876.765675	3.267300	226.171875	-12.402344
402876.767675	3.267197	226.171875	-12.402344
402876.769676	3.266911	35.936016	0.429052
402877.681712	3.266410	44.921875	-122.265625
402877.683714	3.267284	44.921875	-122.265625
402877.685712	3.266916	44.921875	-122.265625
402877.687712	3.266772	35.934494	0.362695
402878.829789	3.267110	234.082031	-17.089844
402878.831791	3.267040	234.082031	-17.089844
402878.833790	3.266864	35.935501	0.474038
402879.748272	3.267334	50.488281	-116.503906
402879.750275	3.266925	50.488281	-116.503906
402879.752274	3.266947	35.936417	0.406195
402880.926292	3.266809	233.398437	-18.457031
402880.928292	3.267198	233.398437	-18.457031
402880.930291	3.266867	233.398437	-18.457031
402880.932292	3.266809	35.934898	0.422087
402881.844320	3.266974	52.832031	-125.000000
402881.846323	3.266964	52.832031	-125.000000
402881.848323	3.266707	35.933781	0.802968
402883.024857	3.267599	232.031250	-19.335937
402883.026857	3.267233	232.031250	-19.335937
402883.028858	3.267147	35.938622	0.400121
402883.941366	3.267006	52.148437	-140.136719
402883.943367	3.267124	52.148437	-140.136719
402883.945369	3.266779	35.934570	0.381468
402885.091398	3.266754	240.332031	-22.167969
402885.093399	3.266695	35.933640	0.460142
402886.009978	3.266772	56.445312	-125.000000
402886.011979	3.266813	35.934944	0.430647
402887.184068	3.265934	230.371094	-19.140625
402887.186069	3.267300	230.371094	-19.140625
402887.188069	3.267143	230.371094	-19.140625
402887.190070	3.266936	35.936298	0.410751
402888.102093	3.266543	54.589844	-137.890625
402888.104094	3.267293	54.589844	-137.890625
402888.106096	3.266868	54.589844	-137.890625
402888.108094	3.266732	35.934055	0.426439
402889.248684	3.266068	237.304687	-21.093750
402889.250687	3.267241	237.304687	-21.093750
402889.254684	3.266748	237.304687	-21.093750
402889.256686	3.266710	35.933811	0.505422
402890.198737	3.266080	46.484375	-178.125000
402890.200740	3.267566	46.484375	-178.125000
402890.202741	3.267277	46.484375	-178.125000
402890.204740	3.267070	35.937771	0.380406
402891.344770	3.264108	237.304687	-19.824219
402891.346775	3.266876	237.304687	-19.824219
402891.348773	3.267187	237.304687	-19.824219
402891.350773	3.266835	237.304687	-19.824219
402891.352773	3.266739	35.934128	0.470495
402892.264823	3.267255	54.980469	-127.050781
402892.266824	3.267137	54.980469	-127.050781
402892.268826	3.266886	35.935741	0.428026
402893.443433	3.266841	224.804687	-15.527344
402893.445435	3.267334	224.804687	-15.527344
402893.447436	3.266979	224.804687	-15.527344
402893.449435	3.266938	35.936317	0.423010
402894.359463	3.264099	46.093750	-166.699219
402894.361465	3.266894	46.093750	-166.699219
402894.363465	3.267106	46.093750	-166.699219
402894.365465	3.266797	46.093750	-166.699219
402894.367464	3.266781	35.934589	0.422634
402895.507520	3.266534	229.101562	-15.039062
402895.509520	3.267654	229.101562	-15.039062
402895.511522	3.267209	229.101562	-15.039062
402895.513522	3.267156	35.938721	0.514416
402896.457536	3.266326	44.335937	-157.617187
402896.459539	3.267478	44.335937	-157.617187
402896.461538	3.267210	44.335937	-157.617187
402896.463538	3.267005	35.937054	0.361689
402897.606049	3.267760	222.851562	-10.546875
402897.608048	3.267633	222.851562	-10.546875
402897.610049	3.267308	35.940392	0.445693
402898.522609	3.266511	52.343750	-94.042969
402898.524611	3.267215	52.343750	-94.042969
402898.526613	3.266759	52.343750	-94.042969
402898.528613	3.266674	35.933411	0.424098
402899.667594	3.262930	226.855469	-10.058594
402899.669597	3.266826	226.855469	-10.058594
402899.671596	3.267113	226.855469	-10.058594
402899.673597	3.266798	226.855469	-10.058594
402899.675596	3.266703	35.933731	0.554255
402900.621638	3.267582	46.875000	-107.910156
402900.623639	3.267259	46.875000	-107.910156
402900.625639	3.267171	35.938877	0.361905
402901.772192	3.266980	217.089844	-4.589844
402901.774193	3.266973	35.936707	0.454516
402902.716739	3.266748	49.316406	-101.562500
402902.718741	3.267540	49.316406	-101.562500
402902.720742	3.267253	49.316406	-101.562500
402902.722741	3.267021	35.937229	0.360430
402903.830762	3.266483	220.996094	-4.687500
402903.832766	3.267277	220.996094	-4.687500
402903.834765	3.267030	220.996094	-4.687500
402903.836768	3.266911	35.936016	0.546529
402904.812827	3.265387	49.609375	-125.976562
402904.814829	3.267198	49.609375	-125.976562
402904.816831	3.267158	49.609375	-125.976562
402904.818828	3.266857	35.935425	0.368492
402905.926875	3.264883	210.742187	-2.148437
402905.928877	3.267075	210.742187	-2.148437
402905.930878	3.267093	210.742187	-2.148437
402905.932879	3.266823	35.935051	0.496711
402906.910935	3.266302	50.781250	-165.039062
402906.912936	3.267193	50.781250	-165.039062
402906.914936	3.266828	50.781250	-165.039062
402906.916935	3.266739	35.934128	0.358417
402907.991054	3.264535	222.949219	-4.785156
402907.993064	3.267147	222.949219	-4.785156
402907.995061	3.267276	222.949219	-4.785156
402907.997063	3.266985	35.936840	0.521868
402909.009099	3.267454	54.199219	-171.582031
402909.011103	3.267329	54.199219	-171.582031
402909.013101	3.267143	35.938580	0.321852
402910.091654	3.267168	218.261719	-4.101562
402910.093656	3.266857	218.261719	-4.101562
402910.095655	3.266726	35.933987	0.494000
402911.071670	3.265273	59.960937	-166.699219
402911.073673	3.267072	59.960937	-166.699219
402911.075673	3.266984	59.960937	-166.699219
402911.077673	3.266689	35.933578	0.420761
402912.153731	3.266426	234.375000	-7.226562
402912.155735	3.267189	234.375000	-7.226562
402912.157742	3.266941	234.375000	-7.226562
402912.159742	3.266838	35.935219	0.537321
402913.169808	3.266615	57.226562	-194.042969
402913.171812	3.267238	57.226562	-194.042969
402913.173811	3.266794	57.226562	-194.042969
402913.175813	3.266801	35.934811	0.380697
402914.249855	3.264477	229.687500	-7.617187
402914.251857	3.267139	229.687500	-7.617187
402914.253858	3.267098	229.687500	-7.617187
402914.257856	3.266798	35.934784	0.522029
402915.267873	3.267000	53.906250	-211.230469
402915.269876	3.266911	53.906250	-211.230469
402915.271876	3.266775	35.934525	0.352402
402916.348455	3.266587	217.773437	-5.761719
402916.350456	3.267076	217.773437	-5.761719
402916.352456	3.266668	217.773437	-5.761719
402916.354455	3.266576	35.932339	0.505738
402917.330457	3.265803	58.691406	-189.746094
402917.332458	3.267684	58.691406	-189.746094
402917.334458	3.267563	58.691406	-189.746094
402917.336457	3.267531	35.942841	0.415556
402918.414481	3.267303	226.367187	-6.152344
402918.416482	3.267008	226.367187	-6.152344
402918.418482	3.266832	35.935158	0.543630
402919.430580	3.267396	52.929687	-221.484375
402919.432582	3.266981	52.929687	-221.484375
402919.434583	3.266957	35.936531	0.383660
402920.508606	3.265157	219.726562	-4.199219
402920.510607	3.267661	219.726562	-4.199219
402920.512608	3.267675	219.726562	-4.199219
402920.514608	3.267372	35.941093	0.508502
402921.526703	3.267097	53.710937	-202.050781
402921.528705	3.266962	53.710937	-202.050781
402921.530705	3.266749	35.934242	0.330627
402922.608743	3.267620	211.621094	-1.367187
402922.610744	3.267189	211.621094	-1.367187
402922.612746	3.267034	35.937370	0.467906
402923.589347	3.265987	52.929687	-187.207031
402923.593347	3.267085	52.929687	-187.207031
402923.595349	3.266877	52.929687	-187.207031
402923.597349	3.266819	35.935013	0.389031
402924.671371	3.266810	215.625000	-1.171875
402924.673373	3.267123	215.625000	-1.171875
402924.675373	3.266826	215.625000	-1.171875
402924.677376	3.266779	35.934570	0.544643
402925.687407	3.266777	47.363281	-187.304687
402925.689406	3.267268	47.363281	-187.304687
402925.691407	3.266919	47.363281	-187.304687
402925.693407	3.266829	35.935123	0.340673
402926.771988	3.266967	205.078125	0.683594
402926.773990	3.266753	205.078125	0.683594
402926.775990	3.266822	35.935040	0.498220
402927.750018	3.264054	44.628906	-174.121094
402927.752021	3.266897	44.628906	-174.121094
402927.754020	3.267170	44.628906	-174.121094
402927.756020	3.266762	44.628906	-174.121094
402927.758020	3.266729	35.934021	0.364520
402928.868115	3.267072	206.738281	0.195312
402928.870115	3.266759	206.738281	0.195312
402928.872116	3.266733	35.934067	0.695566
402929.816652	3.267197	49.609375	-131.250000
402929.818652	3.267263	49.609375	-131.250000
402929.820652	3.267028	35.937309	0.772095
402930.962685	3.266716	203.515625	-0.878906
402930.964687	3.267306	203.515625	-0.878906
402930.966687	3.266912	203.515625	-0.878906
402930.968688	3.266760	35.934357	0.485586
402931.913256	3.267225	39.648437	-190.527344
402931.915259	3.267661	39.648437	-190.527344
402931.917261	3.267403	39.648437	-190.527344
402931.919259	3.267321	35.940529	0.405919
402933.059837	3.266418	201.464844	-2.539062
402933.061839	3.267123	201.464844	-2.539062
402933.063840	3.266798	201.464844	-2.539062
402933.065840	3.266730	35.934032	0.437742
402933.976396	3.265029	44.238281	-185.253906
402933.980397	3.267124	44.238281	-185.253906
402933.982397	3.266802	44.238281	-185.253906
402933.984399	3.266827	35.935097	0.437732
402935.128453	3.266841	212.402344	-7.324219
402935.130455	3.266766	212.402344	-7.324219
402935.132454	3.266725	35.933979	0.530391
402936.073053	3.264014	42.773437	-208.398437
402936.075054	3.264224	42.773437	-208.398437
402936.077055	3.267283	42.773437	-208.398437
402936.079054	3.266927	42.773437	-208.398437
402936.081054	3.266926	35.936184	0.390730
402937.223627	3.267297	210.546875	-8.593750
402937.225628	3.266964	210.546875	-8.593750
402937.227627	3.266938	35.936317	0.464517
402938.172201	3.266810	40.332031	-238.183594
402938.174202	3.267105	40.332031	-238.183594
402938.178201	3.266811	40.332031	-238.183594
402938.180201	3.266759	35.934349	0.576177
402939.318244	3.266838	202.050781	-7.421875
402939.320248	3.267701	202.050781	-7.421875
402939.322247	3.267359	202.050781	-7.421875
402939.324249	3.267272	35.939987	0.441175
402940.238307	3.267629	48.339844	-209.667969
402940.240309	3.267238	48.339844	-209.667969
402940.244309	3.267149	35.938637	0.459717
402941.382878	3.266936	210.058594	-9.667969
402941.384878	3.267750	210.058594	-9.667969
402941.386880	3.267326	210.058594	-9.667969
402941.390878	3.267205	35.939251	0.516046
402942.332915	3.266082	45.605469	-229.492187
402942.334917	3.267323	45.605469	-229.492187
402942.336917	3.266949	45.605469	-229.492187
402942.338918	3.266862	35.935482	0.400034
402943.481004	3.267196	210.546875	-9.863281
402943.485004	3.266885	210.546875	-9.863281
402943.487005	3.266873	35.935600	0.450428
402944.429945	3.266256	38.476562	-264.355469
402944.431947	3.267575	38.476562	-264.355469
402944.433947	3.267222	38.476562	-264.355469
402944.435947	3.267076	35.937843	0.376857
402945.544507	3.266426	212.011719	-9.667969
402945.546510	3.267192	212.011719	-9.667969
402945.548509	3.266807	212.011719	-9.667969
402945.550510	3.266711	35.933819	0.541161
402946.496577	3.267254	47.656250	-219.140625
402946.498581	3.266849	47.656250	-219.140625
402946.500579	3.266752	35.934269	0.425740
402947.641596	3.266839	211.816406	-8.300781
402947.645598	3.267223	211.816406	-8.300781
402947.647598	3.267074	211.816406	-8.300781
402947.649598	3.267146	35.938606	0.494179
402948.593610	3.267155	40.234375	-244.042969
402948.595613	3.266822	40.234375	-244.042969
402948.597612	3.266628	35.932907	0.389368
402949.738195	3.265903	199.414062	-4.296875
402949.740197	3.267350	199.414062	-4.296875
402949.742196	3.267002	199.414062	-4.296875
402949.744196	3.266946	35.936405	0.454031
402950.656253	3.266611	44.433594	-211.718750
402950.658254	3.267232	44.433594	-211.718750
402950.660257	3.266940	44.433594	-211.718750
402950.662254	3.266804	35.934845	0.464225
402951.802279	3.265548	207.226562	-3.613281
402951.804281	3.267624	207.226562	-3.613281
402951.806280	3.267486	207.226562	-3.613281
402951.808281	3.267267	35.939941	0.564411
402952.752841	3.266194	40.722656	-212.011719
402952.754845	3.267750	40.722656	-212.011719
402952.756842	3.267483	40.722656	-212.011719
402952.758846	3.267325	35.940578	0.390721
402953.898922	3.264039	197.265625	0.585937
402953.900922	3.267061	197.265625	0.585937
402953.902923	3.267257	197.265625	0.585937
402953.904923	3.267065	197.265625	0.585937
402953.906922	3.266940	35.936344	0.464233
402954.852937	3.267173	40.039062	-208.398437
402954.854940	3.266812	40.039062	-208.398437
402954.856939	3.266728	35.934006	0.482533
402955.963868	3.265590	194.921875	3.417969
402955.965869	3.267182	194.921875	3.417969
402955.967871	3.267027	194.921875	3.417969
402955.969871	3.266803	35.934830	0.547693
402956.947945	3.266511	37.402344	-222.753906
402956.949948	3.267227	37.402344	-222.753906
402956.953945	3.266665	37.402344	-222.753906
402956.955947	3.266682	35.933498	0.337021
402958.062544	3.267295	191.406250	4.785156
402958.064543	3.267419	191.406250	4.785156
402958.066543	3.267034	191.406250	4.785156
402958.068544	3.266970	35.936672	0.484560
402959.045106	3.267047	39.843750	-235.839844
402959.047107	3.267425	39.843750	-235.839844
402959.049106	3.267058	39.843750	-235.839844
402959.051109	3.267023	35.937256	0.357977
402960.125738	3.266284	194.433594	4.492187
402960.127739	3.267590	194.433594	4.492187
402960.129742	3.267189	194.433594	4.492187
402960.131740	3.266992	35.936909	0.525161
402961.109759	3.267093	54.980469	-183.593750
402961.111761	3.267312	54.980469	-183.593750
402961.113762	3.267013	54.980469	-183.593750
402961.115761	3.266991	35.936901	0.405675
402962.222695	3.265522	188.085937	4.980469
402962.224696	3.267161	188.085937	4.980469
402962.226696	3.266943	188.085937	4.980469
402962.230694	3.266690	35.933594	0.480641
402963.208752	3.267764	53.906250	-219.824219
402963.212751	3.267301	53.906250	-219.824219
402963.214753	3.267323	35.940552	0.477444
402964.287334	3.266052	198.632812	2.636719
402964.289334	3.267269	198.632812	2.636719
402964.291336	3.266964	198.632812	2.636719
402964.293335	3.266892	35.935810	0.534906
402965.303398	3.266438	50.390625	-254.394531
402965.305399	3.267360	50.390625	-254.394531
402965.307400	3.266938	50.390625	-254.394531
402965.309399	3.266897	35.935867	0.369810
402966.383976	3.265617	203.515625	1.269531
402966.385978	3.265774	203.515625	1.269531
402966.387979	3.267560	203.515625	1.269531
402966.389980	3.267274	35.940014	0.505752
402967.399983	3.266150	43.359375	-293.164062
402967.401985	3.267872	43.359375	-293.164062
402967.403985	3.267554	43.359375	-293.164062
402967.405985	3.267346	35.940811	0.349882
402968.482028	3.266554	196.386719	1.464844
402968.484030	3.267046	196.386719	1.464844
402968.486032	3.266799	196.386719	1.464844
402968.488030	3.266726	35.933987	0.446386
402969.464991	3.266806	50.585937	-267.968750
402969.466993	3.267663	50.585937	-267.968750
402969.468993	3.267323	50.585937	-267.968750
402969.470993	3.267246	35.939705	0.408729
402970.545058	3.264484	200.390625	0.781250
402970.547060	3.267566	200.390625	0.781250
402970.549061	3.267792	200.390625	0.781250
402970.551062	3.267482	200.390625	0.781250
402970.553061	3.267371	35.941086	0.542459
402971.561108	3.264610	47.949219	-279.882812
402971.563109	3.267226	47.949219	-279.882812
402971.567109	3.266828	47.949219	-279.882812
402971.569113	3.266886	35.935741	0.379282
402972.643170	3.266161	199.218750	1.171875
402972.645173	3.267434	199.218750	1.171875
402972.647172	3.267061	199.218750	1.171875
402972.651170	3.266977	35.936752	0.476019
402973.627268	3.267170	53.417969	-253.222656
402973.629271	3.267329	53.417969	-253.222656
402973.631270	3.267075	53.417969	-253.222656
402973.633270	3.267055	35.937603	0.667887
402974.709328	3.267297	207.031250	2.050781
402974.711330	3.267061	207.031250	2.050781
402974.713331	3.266926	35.936184	0.563731
402975.723349	3.266212	49.609375	-263.378906
402975.725351	3.267240	49.609375	-263.378906
402975.727350	3.266932	49.609375	-263.378906
402975.729351	3.266850	35.935352	0.396754
402976.805406	3.266662	191.113281	4.980469
402976.807407	3.267100	191.113281	4.980469
402976.809409	3.266897	191.113281	4.980469
402976.811409	3.266818	35.934998	0.547131
402977.821482	3.267127	44.628906	-275.488281
402977.823484	3.267211	44.628906	-275.488281
402977.825486	3.266944	44.628906	-275.488281
402977.827484	3.266952	35.936466	0.561821
402978.901561	3.266093	184.375000	6.933594
402978.903561	3.266143	184.375000	6.933594
402978.905561	3.267458	184.375000	6.933594
402978.907563	3.267309	35.940403	0.467300
402979.885631	3.267048	46.289062	-241.601562
402979.887632	3.267307	46.289062	-241.601562
402979.889633	3.266974	46.289062	-241.601562
402979.891632	3.266984	35.936825	0.447291
402980.967608	3.267585	195.703125	7.226562
402980.969610	3.267509	195.703125	7.226562
402980.971609	3.267197	35.939163	0.579486
402981.984557	3.267555	35.839844	-271.582031
402981.986559	3.267214	35.839844	-271.582031
402981.988558	3.267111	35.938221	0.340437
402983.063142	3.265697	186.523437	8.398437
402983.065144	3.267294	186.523437	8.398437
402983.067144	3.267082	186.523437	8.398437
402983.069144	3.267021	35.937229	0.529841
402984.047185	3.266842	35.449219	-255.957031
402984.049186	3.267478	35.449219	-255.957031
402984.051186	3.267006	35.449219	-255.957031
402984.053185	3.266902	35.935928	0.431032
402985.161278	3.267023	186.914062	7.714844
402985.163280	3.267454	186.914062	7.714844
402985.165280	3.267395	186.914062	7.714844
402985.167280	3.267044	35.937481	0.501311
402986.145915	3.267648	25.878906	-303.320312
402986.147918	3.267299	25.878906	-303.320312
402986.149918	3.267253	35.939781	0.323874
402987.258000	3.266587	181.933594	6.445312
402987.262002	3.267184	181.933594	6.445312
402987.264002	3.267044	181.933594	6.445312
402987.266002	3.267011	35.937122	0.468509
402988.208534	3.266994	35.839844	-267.675781
402988.210539	3.267574	35.839844	-267.675781
402988.212539	3.267201	35.839844	-267.675781
402988.214538	3.267141	35.938549	0.400071
402989.356613	3.267251	180.468750	4.296875
402989.358613	3.266971	180.468750	4.296875
402989.360613	3.266823	35.935051	0.437825
402990.305180	3.266231	26.660156	-320.898437
402990.307184	3.267209	26.660156	-320.898437
402990.309184	3.266939	26.660156	-320.898437
402990.311183	3.266819	35.935005	0.348331
402991.419225	3.266389	187.792969	1.660156
402991.421228	3.267624	187.792969	1.660156
402991.423228	3.267241	187.792969	1.660156
402991.425229	3.267083	35.937912	0.516237
402992.369264	3.265649	33.886719	-298.144531
402992.371266	3.265763	33.886719	-298.144531
402992.373268	3.267177	33.886719	-298.144531
402992.375269	3.266953	35.936478	0.401057
402993.515274	3.263407	184.082031	0.781250
402993.517275	3.266783	184.082031	0.781250
402993.519277	3.267097	184.082031	0.781250
402993.521276	3.266712	184.082031	0.781250
402993.523276	3.266674	35.933411	0.464724
402994.467339	3.266979	32.519531	-315.332031
402994.469342	3.267524	32.519531	-315.332031
402994.471340	3.267123	32.519531	-315.332031
402994.473341	3.267064	35.937706	0.416785
402995.581357	3.266787	197.265625	-1.757812
402995.583359	3.267558	197.265625	-1.757812
402995.585359	3.267148	197.265625	-1.757812
402995.587358	3.267011	35.937122	0.548501
402996.532288	3.267109	38.281250	-292.285156
402996.534287	3.267169	38.281250	-292.285156
402996.536288	3.266800	35.934803	0.799479
402997.678315	3.266767	191.015625	-0.390625
402997.680317	3.267595	191.015625	-0.390625
402997.682317	3.267217	191.015625	-0.390625
402997.684318	3.267138	35.938515	0.482400
402998.630374	3.267088	37.304687	-296.386719
402998.632377	3.266815	37.304687	-296.386719
402998.634376	3.266638	35.933022	0.413276
402999.774395	3.264830	185.839844	0.585937
402999.776402	3.267031	185.839844	0.585937
402999.778406	3.267002	185.839844	0.585937
402999.780406	3.266675	35.933426	0.446797
403000.724404	3.264751	28.222656	-330.468750
403000.726406	3.267645	28.222656	-330.468750
403000.728406	3.267690	28.222656	-330.468750
403000.730407	3.267503	28.222656	-330.468750
403000.732406	3.267363	35.940998	0.371059
403001.838434	3.264019	192.382812	0.878906
403001.840435	3.264405	192.382812	0.878906
403001.842436	3.267412	192.382812	0.878906
403001.844437	3.266965	192.382812	0.878906
403001.846436	3.266919	35.936104	0.548147
403002.789404	3.265726	37.304687	-285.742187
403002.791406	3.267673	37.304687	-285.742187
403002.793405	3.267471	37.304687	-285.742187
403002.795407	3.267278	35.940056	0.441585
403003.935446	3.263636	179.492187	4.785156
403003.937451	3.267173	179.492187	4.785156
403003.939447	3.267630	179.492187	4.785156
403003.941448	3.267209	179.492187	4.785156
403003.943448	3.267176	35.938942	0.467924
403004.887446	3.266711	37.500000	-276.367187
403004.889449	3.267454	37.500000	-276.367187
403004.891451	3.267096	37.500000	-276.367187
403004.893452	3.266951	35.936459	0.406608
403006.004062	3.267683	186.718750	6.054687
403006.006063	3.267323	186.718750	6.054687
403006.008063	3.267299	35.940289	0.771680
403006.984605	3.266515	34.082031	-282.128906
403006.986607	3.267151	34.082031	-282.128906
403006.988607	3.266869	34.082031	-282.128906
403006.990609	3.266670	35.933369	0.359082
403008.098628	3.266450	177.539062	9.277344
403008.100630	3.267306	177.539062	9.277344
403008.102630	3.266910	177.539062	9.277344
403008.104629	3.266742	35.934166	0.472445
403009.082684	3.267433	31.347656	-296.875000
403009.084684	3.267276	31.347656	-296.875000
403009.088681	3.266960	35.936558	0.342970
403010.161229	3.262746	183.300781	10.839844
403010.163230	3.267011	183.300781	10.839844
403010.165232	3.267276	183.300781	10.839844
403010.167231	3.267081	183.300781	10.839844
403010.169230	3.266936	35.936291	0.553478
403011.147253	3.267852	38.964844	-276.367187
403011.149255	3.267514	38.964844	-276.367187
403011.151256	3.267318	35.940502	0.413283
403012.259334	3.265621	171.191406	12.695312
403012.261336	3.267267	171.191406	12.695312
403012.263338	3.267181	171.191406	12.695312
403012.265336	3.266888	35.935768	0.494870
403013.243423	3.266778	44.726562	-273.535156
403013.245427	3.267424	44.726562	-273.535156
403013.247425	3.266994	44.726562	-273.535156
403013.249426	3.266970	35.936672	0.440169
403014.323453	3.265087	183.300781	11.132812
403014.325455	3.267343	183.300781	11.132812
403014.327455	3.267318	183.300781	11.132812
403014.329454	3.267372	35.941093	0.547674
403015.340023	3.266390	40.136719	-314.648437
403015.342027	3.267363	40.136719	-314.648437
403015.344026	3.267064	40.136719	-314.648437
403015.346027	3.266872	35.935593	0.371122
403016.420099	3.263649	172.265625	10.644531
403016.422101	3.266889	172.265625	10.644531
403016.424103	3.267284	172.265625	10.644531
403016.426100	3.267033	172.265625	10.644531
403016.428102	3.266928	35.936211	0.501021
403017.436131	3.264279	42.675781	-319.726562
403017.438158	3.267305	42.675781	-319.726562
403017.440161	3.267363	42.675781	-319.726562
403017.442161	3.267374	42.675781	-319.726562
403017.444161	3.267035	35.937378	0.348254
403018.484703	3.264332	187.304687	9.082031
403018.486732	3.267138	187.304687	9.082031
403018.488735	3.267238	187.304687	9.082031
403018.490734	3.266953	187.304687	9.082031
403018.492735	3.266950	35.936451	0.589818
403019.500770	3.265095	48.046875	-306.640625
403019.502771	3.267242	48.046875	-306.640625
403019.504772	3.267187	48.046875	-306.640625
403019.506773	3.266968	35.936653	0.455156
403020.582793	3.266032	184.765625	8.496094
403020.586794	3.266906	184.765625	8.496094
403020.588795	3.266787	184.765625	8.496094
403020.590794	3.266790	35.934685	0.500843
403021.599709	3.266931	47.265625	-312.988281
403021.603711	3.266645	47.265625	-312.988281
403021.605712	3.266679	35.933464	0.688539
403022.679716	3.265664	176.464844	8.203125
403022.681719	3.267158	176.464844	8.203125
403022.683719	3.266958	176.464844	8.203125
403022.685718	3.266790	35.934685	0.473803
403023.695794	3.266456	38.671875	-350.585937
403023.697794	3.267560	38.671875	-350.585937
403023.701793	3.267042	38.671875	-350.585937
403023.703794	3.267054	35.937595	0.366191
403024.743849	3.265264	181.445312	9.082031
403024.745849	3.267163	181.445312	9.082031
403024.747848	3.266984	181.445312	9.082031
403024.749848	3.266794	35.934738	0.580828
403025.759938	3.265910	45.507812	-319.824219
403025.763938	3.267020	45.507812	-319.824219
403025.765940	3.266835	45.507812	-319.824219
403025.767940	3.266828	35.935104	0.417938
403026.841988	3.266898	171.484375	10.253906
403026.843990	3.267451	171.484375	10.253906
403026.845992	3.267075	171.484375	10.253906
403026.847993	3.266907	35.935978	0.500235
403027.856447	3.264780	43.847656	-324.121094
403027.858449	3.267097	43.847656	-324.121094
403027.860448	3.267197	43.847656	-324.121094
403027.862449	3.266903	35.935936	0.371155
403028.938985	3.266669	165.917969	11.621094
403028.940987	3.267337	165.917969	11.621094
403028.942988	3.267010	165.917969	11.621094
403028.944987	3.266917	35.936089	0.468483
403029.955054	3.266651	37.109375	-344.433594
403029.957056	3.267279	37.109375	-344.433594
403029.959056	3.266979	37.109375	-344.433594
403029.961055	3.266813	35.934944	0.328729
403031.005090	3.267540	175.488281	12.500000
403031.007092	3.267212	175.488281	12.500000
403031.009091	3.267026	35.937283	0.527493
403032.023127	3.267041	42.578125	-305.175781
403032.025130	3.267041	42.578125	-305.175781
403032.027130	3.266978	35.936760	0.367310
403033.099709	3.265716	172.558594	13.378906
403033.101710	3.267535	172.558594	13.378906
403033.103711	3.267375	172.558594	13.378906
403033.105711	3.267130	35.938427	0.494767
403034.083715	3.266615	41.601562	-288.281250
403034.085718	3.267188	41.601562	-288.281250
403034.087718	3.266739	41.601562	-288.281250
403034.089717	3.266690	35.933594	0.412821
403035.197798	3.266686	159.472656	14.062500
403035.201795	3.267056	159.472656	14.062500
403035.203798	3.266899	159.472656	14.062500
403035.205797	3.266819	35.935013	0.437313
403036.179824	3.265385	28.710937	-330.468750
403036.181823	3.265429	28.710937	-330.468750
403036.183825	3.267195	28.710937	-330.468750
403036.185825	3.267014	35.937153	0.360358
403037.293882	3.265341	157.324219	13.574219
403037.295883	3.267396	157.324219	13.574219
403037.297882	3.267293	157.324219	13.574219
403037.299884	3.267104	35.938145	0.417631
403038.243943	3.264614	33.789062	-304.101562
403038.245944	3.267062	33.789062	-304.101562
403038.247945	3.267072	33.789062	-304.101562
403038.249944	3.266918	35.936096	0.421574
403039.362018	3.267231	164.941406	12.011719
403039.364020	3.266908	35.935989	0.824029
403040.342015	3.266261	29.687500	-323.242187
403040.344018	3.267263	29.687500	-323.242187
403040.346020	3.266916	29.687500	-323.242187
403040.348020	3.266749	35.934242	0.386411
403041.458599	3.267247	166.601562	10.449219
403041.460601	3.266754	166.601562	10.449219
403041.462602	3.266766	35.934422	0.475651
403042.406626	3.266374	36.230469	-305.859375
403042.408628	3.267141	36.230469	-305.859375
403042.410629	3.266766	36.230469	-305.859375
403042.412628	3.266679	35.933464	0.440789
403043.553205	3.266441	161.425781	9.277344
403043.555206	3.267603	161.425781	9.277344
403043.557206	3.267233	161.425781	9.277344
403043.559206	3.267136	35.938496	0.429780
403044.503246	3.265925	28.710937	-343.750000
403044.505246	3.267213	28.710937	-343.750000
403044.509246	3.266755	28.710937	-343.750000
403044.511249	3.266727	35.933998	0.390642
403045.619312	3.267105	175.097656	7.324219
403045.621315	3.266836	175.097656	7.324219
403045.623313	3.266718	35.933899	0.517440
403046.601855	3.267397	19.042969	-386.718750
403046.603858	3.267314	19.042969	-386.718750
403046.605856	3.267044	35.937489	0.769027
403047.715892	3.267093	171.386719	7.226562
403047.717894	3.267171	171.386719	7.226562
403047.721891	3.266783	35.934616	0.460068
403048.664829	3.265973	33.984375	-333.398437
403048.666829	3.267312	33.984375	-333.398437
403048.668830	3.267010	33.984375	-333.398437
403048.670832	3.266805	35.934853	0.432559
403049.810894	3.264167	162.304687	8.496094
403049.812894	3.266961	162.304687	8.496094
403049.814899	3.266972	162.304687	8.496094
403049.816899	3.266877	162.304687	8.496094
403049.818900	3.266765	35.934410	0.422519
403050.762930	3.266964	27.832031	-358.300781
403050.764932	3.267255	27.832031	-358.300781
403050.766933	3.266889	27.832031	-358.300781
403050.768932	3.266882	35.935707	0.501667
403051.876950	3.266787	167.968750	8.984375
403051.878951	3.267189	167.968750	8.984375
403051.880953	3.266770	167.968750	8.984375
403051.882950	3.266721	35.933926	0.557095
403052.858960	3.265697	21.484375	-379.199219
403052.860964	3.267299	21.484375	-379.199219
403052.862964	3.267084	21.484375	-379.199219
403052.864963	3.266896	35.935856	0.341438
403053.973024	3.265621	160.839844	10.546875
403053.975025	3.267226	160.839844	10.546875
403053.977025	3.267032	160.839844	10.546875
403053.979026	3.266830	35.935131	0.442382
403054.923058	3.266041	31.640625	-334.960937
403054.925060	3.267793	31.640625	-334.960937
403054.927061	3.267626	31.640625	-334.960937
403054.929064	3.267373	35.941105	0.414758
403056.037109	3.264933	171.679687	12.402344
403056.039112	3.267475	171.679687	12.402344
403056.041111	3.267350	171.679687	12.402344
403056.045109	3.267056	35.937611	0.529316
403057.021156	3.266690	25.195312	-355.566406
403057.023157	3.267350	25.195312	-355.566406
403057.025156	3.267052	25.195312	-355.566406
403057.027158	3.266884	35.935722	0.363977
403058.137197	3.267364	163.281250	14.550781
403058.141197	3.266909	163.281250	14.550781
403058.143199	3.266927	35.936203	0.440496
403059.117185	3.264445	25.097656	-354.101562
403059.119185	3.267135	25.097656	-354.101562
403059.121184	3.267081	25.097656	-354.101562
403059.125183	3.266825	35.935078	0.342295
403060.199722	3.266877	166.503906	16.308594
403060.201724	3.267666	166.503906	16.308594
403060.203725	3.267319	166.503906	16.308594
403060.205723	3.267231	35.939537	0.519075
403061.182275	3.266016	41.992187	-289.355469
403061.184278	3.267342	41.992187	-289.355469
403061.186279	3.267087	41.992187	-289.355469
403061.188278	3.266981	35.936794	0.408991
403062.296349	3.265908	153.222656	17.187500
403062.298349	3.267437	153.222656	17.187500
403062.300350	3.267142	153.222656	17.187500
403062.302348	3.266881	35.935696	0.449450
403063.280389	3.266804	36.425781	-327.929687
403063.282391	3.267126	36.425781	-327.929687
403063.284392	3.266790	36.425781	-327.929687
403063.286391	3.266804	35.934837	0.562545
403064.360431	3.265256	162.890625	17.285156
403064.362432	3.267147	162.890625	17.285156
403064.364433	3.266958	162.890625	17.285156
403064.366433	3.266730	35.934032	0.520847
403065.376515	3.266104	35.351562	-348.632812
403065.378517	3.267490	35.351562	-348.632812
403065.380517	3.267180	35.351562	-348.632812
403065.382517	3.267036	35.937397	0.365134
403066.458582	3.266760	154.980469	16.308594
403066.460585	3.267259	154.980469	16.308594
403066.462584	3.266923	154.980469	16.308594
403066.464583	3.266811	35.934925	0.448197
403067.474597	3.267015	34.472656	-365.820312
403067.476600	3.267216	34.472656	-365.820312
403067.478600	3.267004	34.472656	-365.820312
403067.480599	3.266894	35.935829	0.461216
403068.524644	3.267334	172.167969	16.015625
403068.526644	3.266940	172.167969	16.015625
403068.528647	3.266878	35.935661	0.545288
403069.538652	3.266675	43.847656	-340.234375
403069.540654	3.267231	43.847656	-340.234375
403069.542656	3.266897	43.847656	-340.234375
403069.544653	3.266862	35.935482	0.416256
403070.620713	3.267342	166.503906	14.648437
403070.622714	3.267361	166.503906	14.648437
403070.624714	3.267035	35.937389	0.487175
403071.635702	3.266738	37.500000	-367.871094
403071.637705	3.267511	37.500000	-367.871094
403071.639704	3.267167	37.500000	-367.871094
403071.641704	3.266976	35.936733	0.387039
403072.715761	3.264370	156.152344	13.671875
403072.717774	3.267305	156.152344	13.671875
403072.719773	3.267444	156.152344	13.671875
403072.721774	3.267097	35.938065	0.424567
403073.731799	3.264907	33.007812	-383.984375
403073.733801	3.267410	33.007812	-383.984375
403073.735801	3.267344	33.007812	-383.984375
403073.737802	3.267023	35.937256	0.339558
403074.781844	3.266944	167.871094	13.671875
403074.783846	3.267260	167.871094	13.671875
403074.785847	3.266973	167.871094	13.671875
403074.787845	3.266897	35.935867	0.531714
403075.798405	3.267187	48.144531	-332.812500
403075.800406	3.267034	48.144531	-332.812500
403075.802409	3.266774	35.934517	0.410420
403076.879416	3.267237	159.960937	14.355469
403076.881417	3.267291	159.960937	14.355469
403076.883418	3.266989	35.936874	0.456528
403077.893996	3.265970	33.886719	-380.859375
403077.895999	3.267118	33.886719	-380.859375
403077.898005	3.266719	33.886719	-380.859375
403077.900004	3.266682	35.933498	0.363949
403078.976031	3.266718	150.488281	15.039062
403078.978032	3.267247	150.488281	15.039062
403078.980032	3.266819	150.488281	15.039062
403078.982032	3.266801	35.934811	0.436446
403079.987568	1.993260	33.496094	-380.468750
403079.992918	3.267229	33.496094	-380.468750
403079.994919	3.266961	33.496094	-380.468750
403079.996918	3.266798	35.934776	0.320696
403081.039507	3.265684	155.371094	16.601562
403081.041509	3.267187	155.371094	16.601562
403081.043510	3.266949	155.371094	16.601562
403081.045507	3.266717	35.933887	0.509884
403082.057578	3.267401	41.308594	-346.093750
403082.059581	3.267100	41.308594	-346.093750
403082.063579	3.266983	35.936813	0.374392
403083.139625	3.267263	152.636719	17.968750
403083.141626	3.266982	152.636719	17.968750
403083.143625	3.266913	35.936043	0.507531
403084.152158	3.265140	27.343750	-386.425781
403084.154159	3.267303	27.343750	-386.425781
403084.156157	3.267336	27.343750	-386.425781
403084.158158	3.266963	35.936592	0.331504
403085.234199	3.266271	141.406250	17.871094
403085.236202	3.267222	141.406250	17.871094
403085.238202	3.266994	141.406250	17.871094
403085.240203	3.266906	35.935963	0.388712
403086.216256	3.264648	32.324219	-355.273437
403086.218259	3.267155	32.324219	-355.273437
403086.222260	3.266902	32.324219	-355.273437
403086.224267	3.266815	35.934963	0.367649
403087.300279	3.267229	158.789062	19.531250
403087.302281	3.266908	158.789062	19.531250
403087.306279	3.266662	35.933285	0.507134
403088.315229	3.267055	24.707031	-374.609375
403088.317231	3.267174	24.707031	-374.609375
403088.319232	3.266954	24.707031	-374.609375
403088.321232	3.266792	35.934711	0.314211
403089.397783	3.267653	147.167969	18.066406
403089.399792	3.267258	147.167969	18.066406
403089.401795	3.267228	35.939507	0.467368
403090.377853	3.264776	23.339844	-375.683594
403090.381854	3.267185	23.339844	-375.683594
403090.383857	3.267202	23.339844	-375.683594
403090.385857	3.266949	35.936440	0.386398
403091.491895	3.264962	148.339844	17.382812
403091.493899	3.267553	148.339844	17.382812
403091.495898	3.267629	148.339844	17.382812
403091.497897	3.267320	35.940517	0.412056
403092.475918	3.266371	15.625000	-404.492187
403092.477918	3.267304	15.625000	-404.492187
403092.479918	3.266984	15.625000	-404.492187
403092.481921	3.266800	35.934803	0.305735
403093.559939	3.267498	159.765625	16.210937
403093.561941	3.267143	159.765625	16.210937
403093.563940	3.267114	35.938251	0.647654
403094.540008	3.265872	21.875000	-387.695312
403094.542010	3.267363	21.875000	-387.695312
403094.546007	3.266867	21.875000	-387.695312
403094.548009	3.266811	35.934925	0.404539
403095.656037	3.267104	158.691406	14.453125
403095.658039	3.266844	158.691406	14.453125
403095.660041	3.266617	35.932789	0.459883
403096.638587	3.267210	22.558594	-389.550781
403096.640589	3.267177	22.558594	-389.550781
403096.642588	3.266909	35.935997	0.335222
403097.751543	3.266492	150.000000	14.062500
403097.753545	3.267492	150.000000	14.062500
403097.757544	3.267035	150.000000	14.062500
403097.759553	3.267051	35.937565	0.423120
403098.701618	3.265946	29.980469	-365.820312
403098.703617	3.265978	29.980469	-365.820312
403098.705617	3.266804	29.980469	-365.820312
403098.707618	3.266632	35.932949	0.411472
403099.816206	3.266679	158.984375	14.355469
403099.818206	3.267510	158.984375	14.355469
403099.820205	3.267500	158.984375	14.355469
403099.822206	3.266998	35.936974	0.515963
403100.800237	3.267114	19.824219	-397.460937
403100.802239	3.266987	19.824219	-397.460937
403100.804240	3.266841	35.935253	0.376684
403101.912320	3.265271	151.660156	14.355469
403101.914322	3.267382	151.660156	14.355469
403101.918320	3.266994	151.660156	14.355469
403101.920322	3.266948	35.936432	0.450502
403102.896409	3.266875	16.308594	-408.398437
403102.900407	3.267060	16.308594	-408.398437
403102.902410	3.266975	16.308594	-408.398437
403102.904409	3.267002	35.937019	0.310170
403104.009000	3.264064	146.093750	16.210937
403104.011002	3.267064	146.093750	16.210937
403104.013003	3.267498	146.093750	16.210937
403104.015001	3.267089	146.093750	16.210937
403104.017002	3.267007	35.937080	0.408319
403104.959088	3.262873	29.492187	-361.523437
403104.961091	3.266714	29.492187	-361.523437
403104.963090	3.267380	29.492187	-361.523437
403104.965092	3.266936	29.492187	-361.523437
403104.967090	3.266777	35.934544	0.392342
403106.074015	3.265451	153.613281	17.871094
403106.076018	3.267179	153.613281	17.871094
403106.078016	3.267002	153.613281	17.871094
403106.080016	3.266762	35.934376	0.482521
403107.058114	3.266688	17.382812	-400.781250
403107.060116	3.267233	17.382812	-400.781250
403107.062114	3.266910	17.382812	-400.781250
403107.064114	3.266836	35.935192	0.356498
403108.172143	3.266996	143.457031	19.140625
403108.174145	3.267578	143.457031	19.140625
403108.176144	3.267232	143.457031	19.140625
403108.178145	3.267080	35.937878	0.416798
403109.154185	3.265330	14.648437	-410.546875
403109.156188	3.267408	14.648437	-410.546875
403109.158188	3.267181	14.648437	-410.546875
403109.160189	3.267029	35.937321	0.315574
403110.236181	3.266490	150.585937	21.484375
403110.238183	3.267462	150.585937	21.484375
403110.240184	3.267033	150.585937	21.484375
403110.242183	3.266940	35.936337	0.473896
403111.218193	3.264565	29.492187	-366.015625
403111.220197	3.267408	29.492187	-366.015625
403111.224194	3.267241	29.492187	-366.015625
403111.226196	3.267093	35.938026	0.404493
403112.332202	3.264229	136.914062	20.507812
403112.334203	3.267242	136.914062	20.507812
403112.336202	3.267503	136.914062	20.507812
403112.338202	3.267143	136.914062	20.507812
403112.340202	3.267071	35.937778	0.428584
403113.320249	3.267061	27.148437	-383.398437
403113.322251	3.266961	35.936565	0.376787
403114.398314	3.267025	146.191406	21.875000
403114.400313	3.267265	146.191406	21.875000
403114.402314	3.266964	146.191406	21.875000
403114.404315	3.266851	35.935360	0.546668
403115.412403	3.264228	29.101562	-389.160156
403115.414405	3.267109	29.101562	-389.160156
403115.416406	3.267433	29.101562	-389.160156
403115.418405	3.266985	29.101562	-389.160156
403115.422404	3.266920	35.936123	0.348775
403116.494465	3.265568	138.964844	20.312500
403116.496466	3.267265	138.964844	20.312500
403116.498465	3.267137	138.964844	20.312500
403116.500467	3.266873	35.935600	0.404866
403117.510495	3.265823	26.464844	-405.078125
403117.512496	3.267259	26.464844	-405.078125
403117.514499	3.266963	26.464844	-405.078125
403117.516497	3.266741	35.934147	0.302055
403118.558529	3.265542	154.785156	20.507812
403118.560530	3.267465	154.785156	20.507812
403118.562533	3.267317	154.785156	20.507812
403118.564530	3.267081	35.937893	0.519704
403119.575031	3.266366	36.914062	-379.003906
403119.577035	3.267479	36.914062	-379.003906
403119.579033	3.267170	36.914062	-379.003906
403119.581034	3.267003	35.937035	0.408337
403120.655102	3.263673	143.457031	18.750000
403120.657105	3.267065	143.457031	18.750000
403120.659105	3.267464	143.457031	18.750000
403120.661104	3.266991	143.457031	18.750000
403120.663103	3.266967	35.936638	0.434617
403121.673176	3.267582	27.832031	-409.667969
403121.675178	3.267624	27.832031	-409.667969
403121.677179	3.267326	27.832031	-409.667969
403121.681178	3.267272	35.939995	0.358692
403122.753226	2.340346	138.671875	16.503906
403122.755228	3.267627	138.671875	16.503906
403122.759225	3.267113	138.671875	16.503906
403122.761228	3.267040	35.937435	0.389898
403123.771277	3.267707	28.808594	-407.226562
403123.773279	3.267350	28.808594	-407.226562
403123.775280	3.267226	35.939491	0.308606
403124.817830	3.266204	154.101562	18.164062
403124.819831	3.267606	154.101562	18.164062
403124.821832	3.267259	154.101562	18.164062
403124.823831	3.267075	35.937824	0.494960
403125.832773	3.264542	35.156250	-389.550781
403125.834774	3.267180	35.156250	-389.550781
403125.836773	3.267305	35.156250	-389.550781
403125.838774	3.266957	35.936531	0.399106
403126.914808	3.266406	146.191406	18.066406
403126.916811	3.267741	146.191406	18.066406
403126.918809	3.267373	146.191406	18.066406
403126.920812	3.267283	35.940109	0.400219
403127.929738	2.125559	30.175781	-404.296875
403127.931738	3.267463	30.175781	-404.296875
403127.933740	3.267642	30.175781	-404.296875
403127.935740	3.267612	30.175781	-404.296875
403127.937739	3.267259	35.939846	0.339496
403128.981712	3.267233	153.906250	19.726562
403128.983712	3.266885	153.906250	19.726562
403128.985713	3.266783	35.934608	0.519886
403129.996290	3.267152	36.328125	-384.960937
403129.998287	3.267267	36.328125	-384.960937
403130.000292	3.266892	35.935810	0.413035
403131.076330	3.266098	144.140625	21.191406
403131.078333	3.266222	144.140625	21.191406
403131.080332	3.267289	144.140625	21.191406
403131.082332	3.267054	35.937595	0.440968
403132.092392	3.266202	28.417969	-404.199219
403132.096392	3.266940	28.417969	-404.199219
403132.098393	3.266915	28.417969	-404.199219
403132.100394	3.266904	35.935944	0.360143
403133.172402	3.263549	135.449219	20.507812
403133.176401	3.267803	135.449219	20.507812
403133.178403	3.267308	135.449219	20.507812
403133.180403	3.267370	35.941067	0.401563
403134.188430	3.264513	22.265625	-415.136719
403134.190431	3.267500	22.265625	-415.136719
403134.192432	3.267643	22.265625	-415.136719
403134.194431	3.267271	22.265625	-415.136719
403134.196431	3.267238	35.939621	0.307231
403135.240446	3.267303	141.113281	22.460937
403135.242449	3.267059	141.113281	22.460937
403135.244449	3.266940	35.936344	0.495222
403136.256493	3.267381	29.785156	-383.886719
403136.258496	3.266957	29.785156	-383.886719
403136.260496	3.266941	35.936352	0.382069
403137.335079	3.266079	137.890625	23.144531
403137.337080	3.267427	137.890625	23.144531
403137.339081	3.267096	137.890625	23.144531
403137.341081	3.266977	35.936741	0.467794
403138.317100	3.263990	33.398437	-362.890625
403138.319099	3.266992	33.398437	-362.890625
403138.321099	3.267445	33.398437	-362.890625
403138.323099	3.267035	33.398437	-362.890625
403138.325100	3.266927	35.936203	0.435825
403139.431138	3.263490	134.570312	22.167969
403139.433140	3.267180	134.570312	22.167969
403139.437142	3.267154	134.570312	22.167969
403139.439147	3.267083	134.570312	22.167969
403139.441146	3.267067	35.937737	0.407969
403140.415165	3.266324	18.945312	-405.371094
403140.417167	3.267688	18.945312	-405.371094
403140.419167	3.267450	18.945312	-405.371094
403140.421168	3.267278	35.940056	0.350211
403141.529203	3.265884	129.980469	21.289062
403141.531206	3.267444	129.980469	21.289062
403141.533205	3.267234	129.980469	21.289062
403141.537203	3.266957	35.936523	0.364938
403142.515255	3.267395	7.519531	-440.234375
403142.517258	3.267126	7.519531	-440.234375
403142.519259	3.267026	35.937283	0.381869
403143.593271	3.264981	141.015625	21.191406
403143.595271	3.267300	141.015625	21.191406
403143.597278	3.267262	141.015625	21.191406
403143.599285	3.266951	35.936459	0.472482
403144.577320	3.266399	18.457031	-409.960937
403144.579321	3.267240	18.457031	-409.960937
403144.583319	3.266711	18.457031	-409.960937
403144.585323	3.266727	35.933998	0.385401
403145.691392	3.266182	137.890625	19.628906
403145.693394	3.267106	137.890625	19.628906
403145.695395	3.266711	137.890625	19.628906
403145.699393	3.266578	35.932354	0.400778
403146.673455	3.265630	12.597656	-428.125000
403146.677454	3.267448	12.597656	-428.125000
403146.679457	3.267214	12.597656	-428.125000
403146.681456	3.267176	35.938942	0.307749
403147.787522	3.265577	133.105469	19.042969
403147.789524	3.267721	133.105469	19.042969
403147.791523	3.267637	133.105469	19.042969
403147.793523	3.267357	35.940926	0.371630
403148.737536	3.264797	18.652344	-412.695312
403148.739542	3.267164	18.652344	-412.695312
403148.741547	3.267354	18.652344	-412.695312
403148.743549	3.267010	18.652344	-412.695312
403148.745549	3.266957	35.936523	0.399472
403149.851596	3.264419	143.554687	19.726562
403149.853600	3.267471	143.554687	19.726562
403149.855604	3.267638	143.554687	19.726562
403149.857603	3.267272	143.554687	19.726562
403149.859602	3.267318	35.940502	0.457165
403150.835645	3.266632	20.800781	-408.496094
403150.839646	3.267425	20.800781	-408.496094
403150.841649	3.267292	20.800781	-408.496094
403150.843652	3.267203	35.939236	0.367792
403151.950201	3.266989	136.816406	19.531250
403151.954200	3.267106	136.816406	19.531250
403151.956202	3.267051	136.816406	19.531250
403151.958201	3.267061	35.937675	0.395594
403152.932246	3.265785	9.570312	-439.843750
403152.934247	3.267698	9.570312	-439.843750
403152.938246	3.267137	9.570312	-439.843750
403152.940248	3.267211	35.939320	0.295570
403154.014253	3.266865	143.945312	21.777344
403154.016256	3.267824	143.945312	21.777344
403154.018258	3.267409	143.945312	21.777344
403154.020255	3.267442	35.941864	0.478859
403154.996297	3.264732	20.800781	-408.105469
403154.998299	3.267390	20.800781	-408.105469
403155.000298	3.267301	20.800781	-408.105469
403155.002301	3.267124	35.938362	0.400786
403156.110343	3.264730	137.109375	22.363281
403156.116355	3.266988	137.109375	22.363281
403156.118356	3.267015	137.109375	22.363281
403156.120357	3.266941	35.936352	0.420365
403157.094382	3.266601	15.136719	-419.335937
403157.096381	3.267734	15.136719	-419.335937
403157.100381	3.267437	15.136719	-419.335937
403157.102381	3.267256	35.939819	0.333250
403158.212412	3.267211	128.808594	22.851562
403158.214416	3.267121	35.938328	0.363329
403159.192434	3.267404	9.277344	-437.304687
403159.194436	3.267686	9.277344	-437.304687
403159.196434	3.267337	9.277344	-437.304687
403159.198435	3.267249	35.939739	0.297324
403160.272463	3.266117	133.105469	24.804687
403160.274464	3.267785	133.105469	24.804687
403160.276463	3.267501	133.105469	24.804687
403160.280468	3.267402	35.941422	0.410331
403161.256511	3.267241	25.000000	-395.996094
403161.258512	3.267796	25.000000	-395.996094
403161.260512	3.267397	25.000000	-395.996094
403161.262512	3.267341	35.940746	0.445101
403162.338541	3.267721	142.871094	26.171875
403162.340543	3.267665	142.871094	26.171875
403162.342543	3.267334	35.940670	0.506194
403163.353152	3.266500	25.683594	-399.804687
403163.355154	3.267605	25.683594	-399.804687
403163.359152	3.267133	25.683594	-399.804687
403163.361155	3.267109	35.938194	0.360517
403164.437176	3.267699	134.960937	26.171875
403164.439177	3.267380	134.960937	26.171875
403164.441179	3.267312	35.940430	0.559913
403165.449696	3.265787	29.296875	-399.023437
403165.451699	3.267474	29.296875	-399.023437
403165.453699	3.267272	29.296875	-399.023437
403165.455699	3.266994	35.936928	0.324871
403166.531731	3.266331	131.152344	24.121094
403166.533733	3.267251	131.152344	24.121094
403166.537732	3.266732	131.152344	24.121094
403166.539734	3.266735	35.934082	0.352497
403167.514689	3.266462	38.574219	-378.515625
403167.516689	3.266545	38.574219	-378.515625
403167.518690	3.267609	38.574219	-378.515625
403167.520689	3.267066	35.937725	0.410604
403168.596713	3.267194	135.449219	24.121094
403168.598717	3.267450	135.449219	24.121094
403168.600717	3.267062	135.449219	24.121094
403168.602717	3.267057	35.937630	0.603661
403169.610759	3.264962	35.449219	-391.992187
403169.614767	3.267657	35.449219	-391.992187
403169.616770	3.267385	35.449219	-391.992187
403169.618774	3.267331	35.940643	0.386610
