time (s)	coil I (A)	last det (V)	int current (uC)
405286.654607	3.266699	204.003906	7.421875
405286.656606	3.267078	204.003906	7.421875
405286.658607	3.266791	204.003906	7.421875
405286.660608	3.266817	35.934990	0.422203
405287.734661	3.265289	98.828125	-272.656250
405287.736662	3.267483	98.828125	-272.656250
405287.738662	3.267305	98.828125	-272.656250
405287.740662	3.267097	35.938065	0.326576
405288.750718	2.726453	212.207031	-0.097656
405288.752721	3.267309	212.207031	-0.097656
405288.754726	3.267107	212.207031	-0.097656
405288.756725	3.266832	35.935158	0.364443
405289.832770	3.266688	86.718750	-295.117187
405289.834772	3.267520	86.718750	-295.117187
405289.836771	3.267097	86.718750	-295.117187
405289.838772	3.267010	35.937115	0.286102
405290.848795	3.266705	217.871094	-6.933594
405290.850796	3.267178	217.871094	-6.933594
405290.852796	3.266869	217.871094	-6.933594
405290.854798	3.266707	35.933781	0.392519
405291.896881	3.266311	81.933594	-307.519531
405291.898885	3.267284	81.933594	-307.519531
405291.900892	3.266792	81.933594	-307.519531
405291.902888	3.266708	35.933792	0.306692
405292.946935	3.267315	216.503906	-6.542969
405292.948937	3.267110	216.503906	-6.542969
405292.950936	3.266909	35.935997	0.303734
405293.961601	3.266538	84.863281	-299.609375
405293.963603	3.267210	84.863281	-299.609375
405293.965602	3.266819	84.863281	-299.609375
405293.967602	3.266795	35.934750	0.360397
405295.042202	3.265900	211.328125	-1.074219
405295.044204	3.267346	211.328125	-1.074219
405295.046202	3.267064	211.328125	-1.074219
405295.048203	3.266870	35.935574	0.285652
405296.058241	3.266273	80.664062	-287.792969
405296.060243	3.267488	80.664062	-287.792969
405296.062243	3.267217	80.664062	-287.792969
405296.064245	3.267007	35.937080	0.369894
405297.140309	3.266708	202.929687	4.394531
405297.142310	3.267185	202.929687	4.394531
405297.146309	3.266788	202.929687	4.394531
405297.148312	3.266797	35.934769	0.323285
405298.156335	3.266936	86.914062	-263.964844
405298.158337	3.267124	86.914062	-263.964844
405298.160336	3.266820	86.914062	-263.964844
405298.162336	3.266817	35.934990	0.387717
405299.208330	3.267125	197.558594	8.398437
405299.210332	3.267009	35.937096	0.266300
405300.252952	3.266874	97.363281	-253.417969
405300.254955	3.267595	97.363281	-253.417969
405300.256953	3.267284	97.363281	-253.417969
405300.258954	3.267104	35.938145	0.346663
405301.269028	3.266563	201.269531	8.398437
405301.271029	3.267195	201.269531	8.398437
405301.273028	3.266812	201.269531	8.398437
405301.275029	3.266731	35.934040	0.395419
405302.349071	3.265234	97.949219	-257.910156
405302.351073	3.267377	97.949219	-257.910156
405302.353075	3.267276	97.949219	-257.910156
405302.355073	3.267044	35.937489	0.306777
405303.333120	3.266771	209.082031	5.566406
405303.335123	3.267334	209.082031	5.566406
405303.337123	3.267042	209.082031	5.566406
405303.339124	3.266915	35.936062	0.387394
405304.447139	3.266923	90.722656	-273.828125
405304.449142	3.267627	90.722656	-273.828125
405304.451141	3.267211	90.722656	-273.828125
405304.453140	3.267128	35.938408	0.328022
405305.429132	3.264561	216.894531	-1.562500
405305.431135	3.267141	216.894531	-1.562500
405305.435133	3.266871	216.894531	-1.562500
405305.437136	3.266818	35.934998	0.380825
405306.511176	3.266202	92.871094	-282.324219
405306.513178	3.267483	92.871094	-282.324219
405306.515177	3.267149	92.871094	-282.324219
405306.517178	3.267066	35.937725	0.325654
405307.527227	3.266248	220.996094	-7.617187
405307.529228	3.267220	220.996094	-7.617187
405307.531229	3.266857	220.996094	-7.617187
405307.533228	3.266715	35.933865	0.380535
405308.609273	3.266915	75.878906	-307.031250
405308.611274	3.267067	75.878906	-307.031250
405308.613275	3.266836	75.878906	-307.031250
405308.615274	3.266842	35.935265	0.496103
405309.625361	3.267488	224.218750	-12.304687
405309.627364	3.267448	224.218750	-12.304687
405309.629362	3.267160	35.938766	0.724838
405310.675388	3.267321	82.031250	-302.246094
405310.677391	3.266949	82.031250	-302.246094
405310.681389	3.266866	35.935528	0.319053
405311.719421	2.033771	224.609375	-12.597656
405311.724766	3.267084	224.609375	-12.597656
405311.726768	3.266877	35.935642	0.361272
405312.769318	3.265100	74.316406	-312.109375
405312.771318	3.267242	74.316406	-312.109375
405312.773318	3.267170	74.316406	-312.109375
405312.775317	3.266942	35.936363	0.346478
405313.819369	3.267065	226.074219	-14.355469
405313.821371	3.267318	226.074219	-14.355469
405313.823371	3.266844	226.074219	-14.355469
405313.825370	3.266857	35.935432	0.490707
405314.833914	3.265758	76.660156	-308.691406
405314.835916	3.267667	76.660156	-308.691406
405314.839913	3.267182	76.660156	-308.691406
405314.841915	3.267168	35.938850	0.372988
405315.881949	3.264336	225.683594	-12.792969
405315.883956	3.267185	225.683594	-12.792969
405315.885954	3.267350	225.683594	-12.792969
405315.887953	3.267073	225.683594	-12.792969
405315.889953	3.266975	35.936726	0.393447
405316.932043	3.266836	77.343750	-307.714844
405316.934043	3.267252	77.343750	-307.714844
405316.936043	3.266941	77.343750	-307.714844
405316.938043	3.266874	35.935608	0.338850
405317.980108	3.266023	226.367187	-15.429687
405317.982108	3.267137	226.367187	-15.429687
405317.986105	3.266708	226.367187	-15.429687
405317.988107	3.266765	35.934410	0.381899
405319.028141	3.265205	70.800781	-313.574219
405319.030143	3.267097	70.800781	-313.574219
405319.032144	3.267018	70.800781	-313.574219
405319.034142	3.266711	35.933819	0.328292
405320.044158	3.265825	225.390625	-13.378906
405320.046159	3.267159	225.390625	-13.378906
405320.048159	3.266928	225.390625	-13.378906
405320.050158	3.266732	35.934055	0.407470
405321.126235	3.267026	71.093750	-309.960937
405321.128239	3.267470	71.093750	-309.960937
405321.130242	3.267163	71.093750	-309.960937
405321.132244	3.267002	35.937027	0.323446
405322.142301	3.267079	225.781250	-12.402344
405322.146301	3.267053	225.781250	-12.402344
405322.148303	3.267087	225.781250	-12.402344
405322.150303	3.266964	35.936600	0.425831
405323.222901	3.265764	75.195312	-298.632812
405323.224899	3.267090	75.195312	-298.632812
405323.226899	3.266735	75.195312	-298.632812
405323.228898	3.266643	35.933075	0.264080
405324.238962	3.266434	223.632812	-11.621094
405324.240965	3.267317	223.632812	-11.621094
405324.242971	3.266883	223.632812	-11.621094
405324.244972	3.266741	35.934155	0.347053
405325.287071	2.757105	87.304687	-275.781250
405325.289072	3.267223	87.304687	-275.781250
405325.293072	3.266671	87.304687	-275.781250
405325.295073	3.266729	35.934021	0.358499
405326.303124	3.266145	217.382812	-1.855469
405326.305124	3.267363	217.382812	-1.855469
405326.307124	3.267047	217.382812	-1.855469
405326.309125	3.266866	35.935528	0.385073
405327.385232	3.267068	88.476562	-260.839844
405327.389231	3.267227	88.476562	-260.839844
405327.391234	3.267066	88.476562	-260.839844
405327.393233	3.267058	35.937637	0.451552
405328.403275	3.267133	212.011719	-0.585937
405328.405279	3.266841	212.011719	-0.585937
405328.407278	3.266839	35.935226	0.352830
405329.481303	3.265908	83.398437	-254.101562
405329.483305	3.267417	83.398437	-254.101562
405329.485305	3.267251	83.398437	-254.101562
405329.487303	3.266953	35.936478	0.351735
405330.463394	3.262852	205.761719	7.128906
405330.465397	3.266640	205.761719	7.128906
405330.467396	3.267112	205.761719	7.128906
405330.469396	3.266728	205.761719	7.128906
405330.471397	3.266679	35.933472	0.403221
405331.545489	3.265349	78.808594	-253.515625
405331.547491	3.267301	78.808594	-253.515625
405331.549492	3.267126	78.808594	-253.515625
405331.551492	3.266957	35.936523	0.398067
405332.595510	3.267134	210.742187	-2.343750
405332.597515	3.267434	210.742187	-2.343750
405332.599518	3.267043	210.742187	-2.343750
405332.603518	3.266951	35.936459	0.328019
405333.609570	3.264257	76.855469	-265.136719
405333.611570	3.266892	76.855469	-265.136719
405333.615569	3.266567	76.855469	-265.136719
405333.617572	3.266597	35.932568	0.447571
405334.694176	3.267080	218.164062	-6.445312
405334.696178	3.266709	218.164062	-6.445312
405334.698180	3.266635	35.932983	0.285511
405335.707147	3.265688	66.406250	-293.750000
405335.709147	3.267658	66.406250	-293.750000
405335.711147	3.267367	66.406250	-293.750000
405335.713152	3.267255	35.939808	0.377197
405336.757218	3.267380	225.781250	-11.816406
405336.759218	3.267511	225.781250	-11.816406
405336.761219	3.267180	35.938976	0.398509
405337.771272	3.265045	76.269531	-299.609375
405337.775271	3.266994	76.269531	-299.609375
405337.777273	3.266671	76.269531	-299.609375
405337.779274	3.266615	35.932762	0.463391
405338.853309	3.265841	230.957031	-18.261719
405338.855311	3.267061	230.957031	-18.261719
405338.859309	3.266659	230.957031	-18.261719
405338.861311	3.266682	35.933498	0.334543
405339.869364	3.266628	73.730469	-304.589844
405339.871368	3.267509	73.730469	-304.589844
405339.873367	3.267132	73.730469	-304.589844
405339.875367	3.266962	35.936584	0.397173
405340.919450	3.267754	231.250000	-16.699219
405340.921452	3.267493	231.250000	-16.699219
405340.923453	3.267284	35.940128	0.418933
405341.970003	3.267044	71.679687	-302.441406
405341.972007	3.266894	35.935829	0.331581
405343.016076	3.267048	230.175781	-17.382812
405343.018079	3.266973	230.175781	-17.382812
405343.020078	3.266763	35.934395	0.385033
405344.064099	3.266675	78.808594	-286.621094
405344.066102	3.266962	78.808594	-286.621094
405344.068103	3.266702	78.808594	-286.621094
405344.072101	3.266493	35.931427	0.438599
405345.078632	3.265016	226.269531	-10.937500
405345.080631	3.267061	226.269531	-10.937500
405345.082632	3.266956	226.269531	-10.937500
405345.084632	3.266717	35.933887	0.412920
405346.160644	3.266388	76.171875	-278.222656
405346.162645	3.267304	76.171875	-278.222656
405346.164645	3.267053	76.171875	-278.222656
405346.166645	3.266901	35.935909	0.351026
405347.142731	3.264378	225.195312	-6.347656
405347.144735	3.266940	225.195312	-6.347656
405347.146733	3.267015	225.195312	-6.347656
405347.148735	3.266733	35.934067	0.466756
405348.256776	3.264569	76.367187	-267.968750
405348.258780	3.266968	76.367187	-267.968750
405348.260783	3.267037	76.367187	-267.968750
405348.262782	3.266854	35.935394	0.345530
405349.240867	3.266704	221.289062	-1.953125
405349.242869	3.267641	221.289062	-1.953125
405349.244875	3.267280	221.289062	-1.953125
405349.246881	3.267113	35.938240	0.387731
405350.321883	3.265862	84.667969	-254.492187
405350.325883	3.266915	84.667969	-254.492187
405350.327886	3.266721	84.667969	-254.492187
405350.329886	3.266672	35.933395	0.412722
405351.339912	3.267114	219.921875	-2.246094
405351.341914	3.266785	219.921875	-2.246094
405351.343912	3.266596	35.932560	0.413673
405352.418443	3.264782	81.445312	-251.855469
405352.420445	3.267039	81.445312	-251.855469
405352.422443	3.267113	81.445312	-251.855469
405352.424446	3.266775	35.934525	0.332785
405353.404500	3.267188	217.773437	1.269531
405353.406501	3.266820	217.773437	1.269531
405353.410499	3.266662	35.933285	0.401719
405354.517082	3.266785	80.859375	-245.703125
405354.519084	3.267160	80.859375	-245.703125
405354.521085	3.266877	80.859375	-245.703125
405354.523084	3.266769	35.934456	0.362107
405355.502022	3.267318	216.406250	0.488281
405355.504024	3.266870	216.406250	0.488281
405355.506023	3.266791	35.934704	0.405422
405356.580585	3.265992	84.765625	-241.601562
405356.582587	3.267430	84.765625	-241.601562
405356.584589	3.267135	84.765625	-241.601562
405356.586587	3.266972	35.936691	0.397539
405357.597160	3.267087	216.406250	-0.781250
405357.599161	3.267561	216.406250	-0.781250
405357.601160	3.267126	216.406250	-0.781250
405357.603163	3.267115	35.938267	0.390420
405358.677204	3.264942	75.292969	-246.972656
405358.679207	3.267426	75.292969	-246.972656
405358.681207	3.267339	75.292969	-246.972656
405358.683206	3.267004	35.937042	0.356034
405359.697255	3.267294	216.210937	-2.246094
405359.701257	3.267079	216.210937	-2.246094
405359.705255	3.267027	35.937294	0.348383
405360.741276	3.264263	88.476562	-235.742187
405360.743278	3.267045	88.476562	-235.742187
405360.745277	3.267154	88.476562	-235.742187
405360.747276	3.266883	88.476562	-235.742187
405360.749277	3.266821	35.935032	0.414248
405361.757839	3.266061	217.773437	-2.636719
405361.759841	3.267538	217.773437	-2.636719
405361.761841	3.267271	217.773437	-2.636719
405361.763840	3.267263	35.939888	0.440163
405362.839898	3.267019	81.542969	-243.652344
405362.841901	3.267696	81.542969	-243.652344
405362.847898	3.267346	81.542969	-243.652344
405362.849900	3.267307	35.940376	0.390269
405363.855907	3.266664	218.066406	-2.050781
405363.857909	3.267083	218.066406	-2.050781
405363.859908	3.266784	218.066406	-2.050781
405363.861908	3.266708	35.933792	0.395381
405364.938891	3.267127	79.003906	-244.921875
405364.940894	3.266787	79.003906	-244.921875
405364.944893	3.266620	35.932823	0.357458
405365.951441	3.264075	220.507812	-6.640625
405365.953449	3.266885	220.507812	-6.640625
405365.957445	3.266731	220.507812	-6.640625
405365.959446	3.266712	220.507812	-6.640625
405365.961448	3.266710	35.933811	0.368636
405367.033493	3.265672	70.410156	-255.859375
405367.035496	3.267134	70.410156	-255.859375
405367.039494	3.266815	70.410156	-255.859375
405367.041495	3.266744	35.934181	0.321976
405368.015523	3.263142	224.023437	-6.542969
405368.017526	3.266860	224.023437	-6.542969
405368.019526	3.267173	224.023437	-6.542969
405368.021526	3.266992	224.023437	-6.542969
405368.023526	3.266865	35.935520	0.439211
405369.097631	3.265168	82.910156	-252.343750
405369.099631	3.267319	82.910156	-252.343750
405369.101631	3.267180	82.910156	-252.343750
405369.103632	3.266975	35.936726	0.371530
405370.114246	3.266746	226.074219	-10.156250
405370.116248	3.267384	226.074219	-10.156250
405370.118248	3.267110	226.074219	-10.156250
405370.120249	3.267042	35.937462	0.373476
405371.196317	3.267145	69.921875	-270.410156
405371.198317	3.267297	69.921875	-270.410156
405371.200317	3.266865	69.921875	-270.410156
405371.202318	3.266918	35.936096	0.382952
405372.178401	3.266581	232.031250	-12.109375
405372.180405	3.267570	232.031250	-12.109375
405372.182406	3.267232	232.031250	-12.109375
405372.186407	3.267185	35.939037	0.459578
405373.292515	3.266388	62.109375	-284.863281
405373.294517	3.267336	62.109375	-284.863281
405373.296518	3.267098	62.109375	-284.863281
405373.298517	3.266932	35.936249	0.320122
405374.274578	3.264380	234.667969	-17.285156
405374.276581	3.267246	234.667969	-17.285156
405374.278579	3.267325	234.667969	-17.285156
405374.280580	3.267040	35.937435	0.441096
405375.356622	3.265719	68.359375	-291.113281
405375.358622	3.267163	68.359375	-291.113281
405375.360623	3.266902	68.359375	-291.113281
405375.362622	3.266713	35.933846	0.362549
405376.373205	3.266775	237.597656	-20.507812
405376.375206	3.267318	237.597656	-20.507812
405376.377207	3.266870	237.597656	-20.507812
405376.379205	3.266837	35.935207	0.419927
405377.453269	3.265242	58.789062	-306.152344
405377.455272	3.267552	58.789062	-306.152344
405377.457270	3.267536	58.789062	-306.152344
405377.459270	3.267280	35.940083	0.354882
405378.469300	3.265642	238.867187	-23.144531
405378.471302	3.267575	238.867187	-23.144531
405378.473302	3.267324	238.867187	-23.144531
405378.475302	3.267088	35.937965	0.417587
405379.517328	3.264125	59.082031	-308.886719
405379.519328	3.266928	59.082031	-308.886719
405379.521329	3.267128	59.082031	-308.886719
405379.525329	3.266786	59.082031	-308.886719
405379.527328	3.266795	35.934750	0.366469
405380.569381	3.267040	239.062500	-22.265625
405380.573383	3.266595	239.062500	-22.265625
405380.577381	3.266496	35.931461	0.399858
405381.581941	3.264801	66.210937	-299.023437
405381.583943	3.267284	66.210937	-299.023437
405381.585943	3.267338	66.210937	-299.023437
405381.587942	3.267056	35.937622	0.461846
405382.664492	3.266554	236.621094	-20.605469
405382.666495	3.267235	236.621094	-20.605469
405382.668495	3.266840	236.621094	-20.605469
405382.670494	3.266791	35.934704	0.337838
405383.681044	3.267263	61.816406	-288.867187
405383.683045	3.267280	61.816406	-288.867187
405383.685045	3.266967	35.936638	0.408742
405384.727660	3.265107	232.812500	-13.769531
405384.729662	3.267649	232.812500	-13.769531
405384.731663	3.267609	232.812500	-13.769531
405384.733662	3.267276	35.940041	0.418924
405385.777742	3.266709	57.031250	-268.652344
405385.779745	3.267052	57.031250	-268.652344
405385.781744	3.266769	57.031250	-268.652344
405385.783743	3.266674	35.933411	0.466995
405386.827799	3.267191	225.292969	-11.718750
405386.829801	3.266914	225.292969	-11.718750
405386.831801	3.266698	35.933678	0.327763
405387.841835	3.266695	70.703125	-237.597656
405387.843837	3.267263	70.703125	-237.597656
405387.845837	3.266919	70.703125	-237.597656
405387.847836	3.266865	35.935520	0.480636
405388.889898	3.266361	223.046875	-6.738281
405388.891900	3.267395	223.046875	-6.738281
405388.893902	3.267176	223.046875	-6.738281
405388.895901	3.266932	35.936249	0.395292
405389.937897	3.264871	82.617187	-223.925781
405389.939900	3.267430	82.617187	-223.925781
405389.941899	3.267338	82.617187	-223.925781
405389.943899	3.267071	35.937778	0.460022
405390.953946	3.265285	224.316406	-4.980469
405390.955951	3.267214	224.316406	-4.980469
405390.957953	3.267044	224.316406	-4.980469
405390.959955	3.266915	35.936069	0.434214
405392.036043	3.266957	79.296875	-231.054687
405392.038045	3.267678	79.296875	-231.054687
405392.040043	3.267285	79.296875	-231.054687
405392.042044	3.267257	35.939827	0.439264
405393.052082	3.266893	228.613281	-8.593750
405393.054082	3.267612	228.613281	-8.593750
405393.056082	3.267113	228.613281	-8.593750
405393.058082	3.267089	35.937977	0.394074
405394.134155	3.266893	80.371094	-242.578125
405394.136160	3.267008	80.371094	-242.578125
405394.138160	3.266722	35.933941	0.814827
405395.148191	3.265434	231.054687	-12.792969
405395.150195	3.267211	231.054687	-12.792969
405395.152193	3.267000	231.054687	-12.792969
405395.154193	3.266853	35.935379	0.390509
405396.230267	3.266413	67.382812	-262.988281
405396.232269	3.267437	67.382812	-262.988281
405396.234268	3.267176	67.382812	-262.988281
405396.236269	3.266992	35.936909	0.367642
405397.214303	3.267503	237.988281	-14.550781
405397.216305	3.267557	237.988281	-14.550781
405397.218305	3.267264	35.939907	0.453749
405398.294384	3.266000	76.269531	-263.574219
405398.296388	3.267323	76.269531	-263.574219
405398.298386	3.266968	76.269531	-263.574219
405398.300386	3.266947	35.936417	0.428833
405399.310951	3.267017	238.574219	-17.773437
405399.312953	3.267397	238.574219	-17.773437
405399.314955	3.267047	238.574219	-17.773437
405399.316953	3.266969	35.936665	0.510742
405400.391001	3.265476	72.070312	-271.484375
405400.393002	3.267429	72.070312	-271.484375
405400.395001	3.267373	72.070312	-271.484375
405400.397003	3.267097	35.938072	0.385960
405401.407062	3.265931	238.964844	-19.238281
405401.409062	3.265991	238.964844	-19.238281
405401.411064	3.267249	238.964844	-19.238281
405401.413062	3.267032	35.937355	0.394473
405402.489120	3.266624	65.429687	-274.707031
405402.491122	3.267529	65.429687	-274.707031
405402.493122	3.267093	65.429687	-274.707031
405402.495121	3.267037	35.937408	0.371351
405403.471718	3.265957	241.015625	-17.285156
405403.473720	3.267356	241.015625	-17.285156
405403.475718	3.267110	241.015625	-17.285156
405403.477720	3.267095	35.938046	0.459976
405404.555760	3.267513	70.019531	-266.601562
405404.557762	3.267190	70.019531	-266.601562
405404.559763	3.267119	35.938313	0.459145
405405.567822	3.263934	237.792969	-16.699219
405405.569825	3.267047	237.792969	-16.699219
405405.571824	3.267251	237.792969	-16.699219
405405.573824	3.266966	237.792969	-16.699219
405405.575824	3.266905	35.935951	0.420108
405406.649848	3.265526	67.675781	-259.179687
405406.651850	3.267198	67.675781	-259.179687
405406.653851	3.266948	67.675781	-259.179687
405406.657848	3.266875	35.935627	0.387641
405407.635889	3.267335	238.281250	-11.425781
405407.637891	3.267008	238.281250	-11.425781
405407.639891	3.266931	35.936237	0.467406
405408.748417	3.266902	71.875000	-242.187500
405408.750418	3.267045	71.875000	-242.187500
405408.752417	3.266807	71.875000	-242.187500
405408.754418	3.266745	35.934200	0.386643
405409.731391	2.745980	232.324219	-10.644531
405409.733394	3.267617	232.324219	-10.644531
405409.735394	3.267309	232.324219	-10.644531
405409.737393	3.267221	35.939438	0.618980
405410.811454	3.265719	75.683594	-225.488281
405410.813456	3.267085	75.683594	-225.488281
405410.815457	3.266846	75.683594	-225.488281
405410.817457	3.266639	35.933029	0.443291
405411.829506	3.267588	228.808594	-9.667969
405411.831508	3.267176	228.808594	-9.667969
405411.833509	3.267110	35.938213	0.393577
405412.909588	3.266969	62.988281	-223.535156
405412.911591	3.267225	62.988281	-223.535156
405412.915588	3.266878	62.988281	-223.535156
405412.917590	3.266882	35.935707	0.440535
405413.925680	3.266977	226.464844	-10.546875
405413.927683	3.267222	226.464844	-10.546875
405413.929683	3.266954	226.464844	-10.546875
405413.931682	3.266854	35.935394	0.377559
405414.972266	3.263760	63.964844	-225.683594
405414.974267	3.266946	63.964844	-225.683594
405414.976267	3.267329	63.964844	-225.683594
405414.978266	3.266849	63.964844	-225.683594
405414.980267	3.266870	35.935574	0.456166
405416.021223	3.265046	228.906250	-14.257812
405416.023225	3.267169	228.906250	-14.257812
405416.025224	3.267140	228.906250	-14.257812
405416.027230	3.266919	35.936111	0.345152
405417.037279	3.265655	58.886719	-241.992187
405417.039281	3.267371	58.886719	-241.992187
405417.041282	3.267259	58.886719	-241.992187
405417.045283	3.267017	35.937187	0.489120
405418.121368	3.267292	234.375000	-18.554687
405418.123370	3.266878	234.375000	-18.554687
405418.125370	3.266768	35.934448	0.349947
405419.135475	3.266656	51.171875	-269.433594
405419.137477	3.267268	51.171875	-269.433594
405419.139477	3.266891	51.171875	-269.433594
405419.141477	3.266734	35.934074	0.440973
405420.185531	3.267361	242.871094	-20.800781
405420.189530	3.266876	242.871094	-20.800781
405420.191532	3.266914	35.936054	0.421478
405421.232073	3.266144	49.218750	-291.406250
405421.234076	3.267234	49.218750	-291.406250
405421.236076	3.266896	49.218750	-291.406250
405421.238077	3.266822	35.935040	0.379863
405422.280659	3.266160	245.996094	-25.000000
405422.282661	3.267164	245.996094	-25.000000
405422.284661	3.266911	245.996094	-25.000000
405422.286660	3.266707	35.933773	0.379863
405423.295622	3.265147	55.273437	-294.921875
405423.297625	3.267515	55.273437	-294.921875
405423.299624	3.267550	55.273437	-294.921875
405423.301624	3.267158	35.938736	0.450779
405424.345698	3.267273	250.097656	-26.660156
405424.347701	3.267287	250.097656	-26.660156
405424.349700	3.267250	250.097656	-26.660156
405424.351701	3.267239	35.939632	0.534936
405425.389763	2.102239	55.859375	-298.242187
405425.395013	3.267321	55.859375	-298.242187
405425.397015	3.267115	55.859375	-298.242187
405425.399014	3.266915	35.936062	0.429871
405426.445089	3.267558	249.511719	-28.027344
405426.447093	3.267287	249.511719	-28.027344
405426.449091	3.267163	35.938789	0.407402
405427.491642	3.266888	57.128906	-296.972656
405427.493643	3.266848	57.128906	-296.972656
405427.495644	3.266793	57.128906	-296.972656
405427.497643	3.266728	35.934013	0.611338
405428.539659	3.266415	246.582031	-28.710937
405428.543659	3.266795	246.582031	-28.710937
405428.545661	3.266676	246.582031	-28.710937
405428.547663	3.266704	35.933746	0.368319
405429.587685	3.265626	54.589844	-295.312500
405429.589687	3.267207	54.589844	-295.312500
405429.591687	3.266902	54.589844	-295.312500
405429.593687	3.266766	35.934429	0.366773
405430.602682	3.264307	248.925781	-27.050781
405430.604684	3.267118	248.925781	-27.050781
405430.606685	3.267221	248.925781	-27.050781
405430.608684	3.266934	248.925781	-27.050781
405430.610684	3.266820	35.935024	0.428683
405431.652759	3.266483	62.890625	-285.058594
405431.656759	3.266760	62.890625	-285.058594
405431.658759	3.266700	62.890625	-285.058594
405431.660758	3.266605	35.932655	0.434451
405432.703358	3.267167	246.093750	-26.953125
405432.705361	3.266890	246.093750	-26.953125
405432.707360	3.266720	35.933914	0.385082
405433.751466	3.267268	61.425781	-283.203125
405433.753470	3.266937	61.425781	-283.203125
405433.755468	3.266814	35.934952	0.403997
405434.767474	3.267223	248.535156	-26.074219
405434.769476	3.266974	248.535156	-26.074219
405434.771477	3.266791	35.934696	0.461530
405435.845555	3.263872	53.906250	-287.011719
405435.847557	3.266837	53.906250	-287.011719
405435.849557	3.266967	53.906250	-287.011719
405435.851558	3.266700	53.906250	-287.011719
405435.853556	3.266657	35.933228	0.367235
405436.863644	3.267597	248.828125	-26.171875
405436.867643	3.267358	248.828125	-26.171875
405436.869645	3.267347	35.940819	0.409795
405437.910234	3.264998	65.429687	-277.246094
405437.912237	3.267285	65.429687	-277.246094
405437.914236	3.267240	65.429687	-277.246094
405437.916236	3.267003	35.937035	0.432328
405438.926223	3.265120	251.367187	-24.804687
405438.928224	3.267210	251.367187	-24.804687
405438.930223	3.267043	251.367187	-24.804687
405438.932224	3.266794	35.934738	0.477874
405440.008807	3.266807	58.203125	-281.445312
405440.010810	3.267227	58.203125	-281.445312
405440.012811	3.266752	58.203125	-281.445312
405440.014810	3.266828	35.935104	0.473306
405441.023424	3.265540	250.000000	-26.855469
405441.025427	3.267270	250.000000	-26.855469
405441.027426	3.267274	250.000000	-26.855469
405441.029426	3.266859	35.935448	0.448526
405442.105528	3.266221	51.855469	-287.988281
405442.109528	3.266832	51.855469	-287.988281
405442.111530	3.266771	51.855469	-287.988281
405442.113530	3.266769	35.934456	0.362203
405443.121569	3.266843	249.707031	-27.636719
405443.125571	3.266948	249.707031	-27.636719
405443.127569	3.267051	249.707031	-27.636719
405443.129569	3.266947	35.936417	0.420882
405444.169656	3.266504	60.742187	-282.812500
405444.171659	3.267602	60.742187	-282.812500
405444.173658	3.267348	60.742187	-282.812500
405444.175659	3.267126	35.938381	0.430781
405445.184610	3.264531	252.832031	-27.148437
405445.186611	3.266980	252.832031	-27.148437
405445.188611	3.267067	252.832031	-27.148437
405445.192609	3.266848	35.935326	0.478175
405446.268677	3.267109	55.566406	-287.402344
405446.270679	3.266766	55.566406	-287.402344
405446.272678	3.266608	35.932682	0.390023
405447.282707	3.266232	255.468750	-28.320312
405447.284710	3.267225	255.468750	-28.320312
405447.286714	3.266870	255.468750	-28.320312
405447.288715	3.266793	35.934723	0.476513
405448.330773	3.265593	57.226562	-289.257812
405448.332774	3.267404	57.226562	-289.257812
405448.334774	3.267217	57.226562	-289.257812
405448.336775	3.267008	35.937088	0.411570
405449.379322	3.265696	252.832031	-29.003906
405449.381324	3.267409	252.832031	-29.003906
405449.383326	3.267208	252.832031	-29.003906
405449.385325	3.266922	35.936138	0.411420
405450.428237	3.266046	46.093750	-294.921875
405450.430239	3.267351	46.093750	-294.921875
405450.432240	3.267008	46.093750	-294.921875
405450.434240	3.266832	35.935158	0.410208
405451.476305	3.265460	250.976562	-29.296875
405451.478307	3.267388	250.976562	-29.296875
405451.480308	3.267344	250.976562	-29.296875
405451.482307	3.267279	35.940063	0.365839
405452.494373	3.267575	50.781250	-284.765625
405452.496376	3.267312	50.781250	-284.765625
405452.498375	3.267103	35.938133	0.450205
405453.574458	3.266562	246.289062	-28.320312
405453.576461	3.267355	246.289062	-28.320312
405453.578462	3.267083	246.289062	-28.320312
405453.580460	3.267024	35.937263	0.333777
405454.592500	3.267175	46.972656	-274.121094
405454.594501	3.266881	46.972656	-274.121094
405454.596503	3.266829	35.935123	0.432983
405455.641126	3.267259	247.851562	-23.632812
405455.643126	3.266961	247.851562	-23.632812
405455.645127	3.266990	35.936893	0.487151
405456.689703	3.267645	41.503906	-257.324219
405456.691706	3.267366	41.503906	-257.324219
405456.693706	3.267277	35.940048	0.463363
405457.736246	3.267183	240.234375	-21.289062
405457.738246	3.267699	240.234375	-21.289062
405457.740248	3.267280	240.234375	-21.289062
405457.742247	3.267234	35.939579	0.431080
405458.750316	3.264069	48.632812	-228.710937
405458.752318	3.267327	48.632812	-228.710937
405458.754320	3.267457	48.632812	-228.710937
405458.756318	3.267112	48.632812	-228.710937
405458.758318	3.267010	35.937115	0.477288
405459.800337	3.266514	237.988281	-16.796875
405459.802339	3.267342	237.988281	-16.796875
405459.804340	3.266952	237.988281	-16.796875
405459.806339	3.266891	35.935795	0.396494
405460.848889	3.266404	57.324219	-203.808594
405460.850891	3.267179	57.324219	-203.808594
405460.852892	3.266817	57.324219	-203.808594
405460.854891	3.266661	35.933266	0.432109
405461.896911	3.265611	233.789062	-15.917969
405461.898913	3.267116	233.789062	-15.917969
405461.900913	3.266849	233.789062	-15.917969
405461.902912	3.266720	35.933914	0.358738
405462.945883	3.266194	58.398437	-198.828125
405462.947884	3.267198	58.398437	-198.828125
405462.949883	3.266831	58.398437	-198.828125
405462.951883	3.266770	35.934475	0.418399
405463.962454	3.267064	235.253906	-15.136719
405463.964457	3.267375	235.253906	-15.136719
405463.966457	3.266994	235.253906	-15.136719
405463.968458	3.266942	35.936363	0.403353
405465.044470	3.267302	56.933594	-201.953125
405465.048470	3.266891	56.933594	-201.953125
405465.050474	3.267027	35.937294	0.393524
405466.058543	3.266165	233.886719	-17.480469
405466.060544	3.267482	233.886719	-17.480469
405466.062545	3.267124	233.886719	-17.480469
405466.064544	3.267003	35.937035	0.365130
405467.142601	3.267256	51.953125	-215.625000
405467.144605	3.266860	51.953125	-215.625000
405467.146604	3.266841	35.935253	0.356382
405468.122639	3.265312	240.917969	-17.578125
405468.124641	3.267336	240.917969	-17.578125
405468.126640	3.267194	240.917969	-17.578125
405468.128641	3.267046	35.937508	0.431731
405469.204687	3.266953	64.160156	-221.679687
405469.206688	3.267603	64.160156	-221.679687
405469.208689	3.267297	64.160156	-221.679687
405469.210690	3.267178	35.938957	0.415233
405470.219240	3.264365	242.285156	-19.921875
405470.221263	3.267238	242.285156	-19.921875
405470.223265	3.267354	242.285156	-19.921875
405470.225268	3.266973	242.285156	-19.921875
405470.227266	3.266970	35.936672	0.388024
405471.301361	3.266131	56.250000	-232.910156
405471.303362	3.267355	56.250000	-232.910156
405471.305362	3.267171	56.250000	-232.910156
405471.307362	3.266973	35.936699	0.385886
405472.283431	3.263990	248.828125	-19.433594
405472.285432	3.267382	248.828125	-19.433594
405472.287431	3.267687	248.828125	-19.433594
405472.289433	3.267265	248.828125	-19.433594
405472.291433	3.267246	35.939705	0.478644
405473.401509	3.267106	49.316406	-236.718750
405473.403512	3.266953	49.316406	-236.718750
405473.405510	3.266783	35.934608	0.485985
405474.381554	3.265768	244.824219	-20.898437
405474.383555	3.267333	244.824219	-20.898437
405474.385556	3.267102	244.824219	-20.898437
405474.387556	3.266843	35.935272	0.407678
405475.463584	3.266638	62.109375	-228.320312
405475.465586	3.267315	62.109375	-228.320312
405475.467588	3.266850	62.109375	-228.320312
405475.469587	3.266840	35.935246	0.414153
405476.478551	3.265783	245.019531	-19.921875
405476.480554	3.267200	245.019531	-19.921875
405476.482553	3.266966	245.019531	-19.921875
405476.484554	3.266683	35.933517	0.396469
405477.559510	3.265150	54.785156	-224.121094
405477.561512	3.267360	54.785156	-224.121094
405477.563510	3.267329	54.785156	-224.121094
405477.565512	3.267134	35.938469	0.358829
405478.545587	3.267442	243.652344	-18.261719
405478.547589	3.267098	243.652344	-18.261719
405478.549589	3.267020	35.937222	0.451692
405479.627644	3.267614	64.843750	-206.738281
405479.629646	3.267200	64.843750	-206.738281
405479.631646	3.267158	35.938736	0.689836
405480.642207	3.267211	240.625000	-16.992187
405480.644209	3.266973	240.625000	-16.992187
405480.646209	3.266872	35.935593	0.391442
405481.722228	3.267009	58.496094	-194.921875
405481.726228	3.267056	58.496094	-194.921875
405481.728230	3.266937	58.496094	-194.921875
405481.730232	3.266971	35.936680	0.395476
405482.736765	3.265192	235.742187	-17.285156
405482.738768	3.267594	235.742187	-17.285156
405482.742766	3.267331	235.742187	-17.285156
405482.746765	3.267299	35.940289	0.369997
405483.788830	3.267720	59.863281	-187.207031
405483.790833	3.267209	59.863281	-187.207031
405483.794830	3.267189	35.939075	0.460975
405484.836864	3.267266	232.910156	-18.750000
405484.838867	3.266884	232.910156	-18.750000
405484.842866	3.266693	35.933624	0.335181
405485.882911	3.265570	47.558594	-190.429687
405485.884914	3.267360	47.558594	-190.429687
405485.886914	3.267136	47.558594	-190.429687
405485.888914	3.266962	35.936584	0.404649
405486.930979	3.264596	237.109375	-19.726562
405486.932980	3.267093	237.109375	-19.726562
405486.934979	3.267114	237.109375	-19.726562
405486.936979	3.266796	35.934757	0.314838
405487.949555	3.266592	50.585937	-203.222656
405487.953556	3.267152	50.585937	-203.222656
405487.955557	3.267092	35.938011	0.444511
405488.998108	3.267201	245.996094	-21.191406
405489.000109	3.266979	245.996094	-21.191406
405489.002109	3.266779	35.934570	0.412915
405490.044670	3.265814	40.429687	-228.613281
405490.046672	3.267217	40.429687	-228.613281
405490.048673	3.266968	40.429687	-228.613281
405490.050674	3.266738	35.934120	0.385763
405491.093238	3.266139	246.289062	-26.367187
405491.095238	3.267354	246.289062	-26.367187
405491.097239	3.267029	246.289062	-26.367187
405491.099239	3.266929	35.936222	0.384733
405492.109327	3.266153	48.339844	-242.675781
405492.111329	3.266174	48.339844	-242.675781
405492.115327	3.266770	48.339844	-242.675781
405492.117329	3.266877	35.935650	0.452857
405493.189906	3.265038	248.144531	-29.980469
405493.191908	3.267134	248.144531	-29.980469
405493.193910	3.266981	248.144531	-29.980469
405493.195909	3.266759	35.934349	0.353501
405494.205967	3.266003	39.257812	-263.769531
405494.207969	3.267632	39.257812	-263.769531
405494.209969	3.267416	39.257812	-263.769531
405494.211969	3.267193	35.939125	0.406384
405495.260019	3.266978	256.640625	-31.152344
405495.262022	3.266952	256.640625	-31.152344
405495.264020	3.266878	35.935661	0.417031
405496.303033	3.265673	37.988281	-273.046875
405496.305035	3.267467	37.988281	-273.046875
405496.307035	3.267286	37.988281	-273.046875
405496.309035	3.267065	35.937717	0.369387
405497.351058	3.264214	253.515625	-32.519531
405497.353060	3.267225	253.515625	-32.519531
405497.357058	3.267119	253.515625	-32.519531
405497.359062	3.266994	253.515625	-32.519531
405497.361063	3.266922	35.936138	0.379863
405498.403108	3.267364	35.839844	-277.343750
405498.405111	3.267085	35.839844	-277.343750
405498.407110	3.267032	35.937355	0.322920
405499.415213	3.263686	258.789062	-33.007812
405499.417215	3.267238	258.789062	-33.007812
405499.419214	3.267407	258.789062	-33.007812
405499.421215	3.267151	258.789062	-33.007812
405499.423213	3.267046	35.937508	0.444457
405500.465808	3.266645	48.632812	-269.140625
405500.467812	3.267060	48.632812	-269.140625
405500.469811	3.266690	48.632812	-269.140625
405500.471811	3.266662	35.933277	0.410700
405501.513801	3.266198	253.320312	-33.789062
405501.515802	3.267047	253.320312	-33.789062
405501.517804	3.266764	253.320312	-33.789062
405501.519803	3.266565	35.932213	0.390952
405502.563861	3.267035	43.750000	-273.339844
405502.565860	3.266828	43.750000	-273.339844
405502.567863	3.266670	35.933376	0.368847
405503.611887	3.267422	254.589844	-33.496094
405503.613888	3.267496	254.589844	-33.496094
405503.615887	3.267280	35.940075	0.349780
405504.660834	3.267247	36.132812	-276.074219
405504.662836	3.267054	36.132812	-276.074219
405504.664834	3.266802	35.934822	0.328257
405505.674865	3.265649	257.031250	-33.691406
405505.676867	3.267119	257.031250	-33.691406
405505.678868	3.266902	257.031250	-33.691406
405505.680866	3.266751	35.934261	0.424264
405506.722923	3.264406	41.113281	-272.753906
405506.724924	3.267055	41.113281	-272.753906
405506.726925	3.267028	41.113281	-272.753906
405506.728925	3.266863	35.935493	0.392655
405507.772943	3.266681	252.832031	-33.984375
405507.774946	3.267156	252.832031	-33.984375
405507.776945	3.266804	252.832031	-33.984375
405507.778945	3.266824	35.935059	0.375970
405508.822979	3.267345	38.574219	-271.972656
405508.824981	3.266904	38.574219	-271.972656
405508.826982	3.266782	35.934597	0.352921
405509.871561	3.267326	254.296875	-33.886719
405509.873562	3.266950	254.296875	-33.886719
405509.875562	3.266790	35.934685	0.333108
405510.887606	3.267168	45.996094	-262.890625
405510.889609	3.266895	45.996094	-262.890625
405510.893606	3.266765	35.934410	0.412034
405511.934181	3.266580	258.105469	-32.812500
405511.936181	3.267081	258.105469	-32.812500
405511.938181	3.266741	258.105469	-32.812500
405511.940183	3.266608	35.932682	0.407146
405512.982287	3.265826	38.964844	-259.960937
405512.986288	3.266898	38.964844	-259.960937
405512.988288	3.266704	38.964844	-259.960937
405512.990288	3.266656	35.933216	0.376669
405514.030855	3.266050	254.980469	-31.640625
405514.032859	3.267363	254.980469	-31.640625
405514.034858	3.267058	254.980469	-31.640625
405514.036858	3.266944	35.936390	0.381564
405515.049438	3.267338	43.652344	-244.140625
405515.051440	3.267023	43.652344	-244.140625
405515.053441	3.267000	35.937000	0.464290
405516.127455	3.265112	249.316406	-29.785156
405516.129457	3.267167	249.316406	-29.785156
405516.131457	3.267102	249.316406	-29.785156
405516.133456	3.266857	35.935432	0.343000
405517.143450	3.265704	34.863281	-229.296875
405517.145452	3.265742	34.863281	-229.296875
405517.147452	3.267304	34.863281	-229.296875
405517.149453	3.267169	35.938862	0.401562
405518.193502	3.267054	252.148437	-25.878906
405518.195504	3.267217	252.148437	-25.878906
405518.197504	3.266842	252.148437	-25.878906
405518.199505	3.266800	35.934803	0.411724
405519.240491	3.265336	36.718750	-204.492187
405519.242492	3.267336	36.718750	-204.492187
405519.244492	3.267219	36.718750	-204.492187
405519.246493	3.267035	35.937389	0.366921
405520.289054	3.265105	242.089844	-24.121094
405520.291057	3.267163	242.089844	-24.121094
405520.293056	3.267005	242.089844	-24.121094
405520.295057	3.266741	35.934147	0.339602
405521.305132	3.265303	50.000000	-178.125000
405521.307135	3.267115	50.000000	-178.125000
405521.309142	3.266877	50.000000	-178.125000
405521.311143	3.266682	35.933498	0.457511
405522.354094	3.266361	242.285156	-21.093750
405522.356095	3.267673	242.285156	-21.093750
405522.358095	3.267354	242.285156	-21.093750
405522.360094	3.267201	35.939217	0.394879
405523.404126	3.267068	45.800781	-166.699219
405523.406128	3.266949	45.800781	-166.699219
405523.408128	3.266827	35.935097	0.424021
405524.450172	3.263562	236.718750	-21.679687
405524.452174	3.266921	236.718750	-21.679687
405524.454174	3.267255	236.718750	-21.679687
405524.456175	3.266833	236.718750	-21.679687
405524.458177	3.266763	35.934395	0.340503
405525.502195	3.267319	54.687500	-163.183594
405525.504198	3.266909	54.687500	-163.183594
405525.506197	3.266877	35.935650	0.401323
405526.516247	3.267164	245.898437	-19.140625
405526.518250	3.267627	245.898437	-19.140625
405526.522247	3.267245	245.898437	-19.140625
405526.524249	3.267217	35.939392	0.398120
405527.597220	3.266242	52.246094	-171.972656
405527.599222	3.267195	52.246094	-171.972656
405527.601222	3.266843	52.246094	-171.972656
405527.603221	3.266715	35.933865	0.370614
405528.611762	3.263964	240.917969	-21.484375
405528.613766	3.266883	240.917969	-21.484375
405528.615766	3.266998	240.917969	-21.484375
405528.617765	3.266711	240.917969	-21.484375
405528.619766	3.266642	35.933067	0.344084
405529.693856	3.266166	47.558594	-182.910156
405529.695858	3.267652	47.558594	-182.910156
405529.697858	3.267406	47.558594	-182.910156
405529.699858	3.267233	35.939560	0.335095
405530.677943	3.266707	249.902344	-21.289062
405530.679946	3.267089	249.902344	-21.289062
405530.681945	3.266608	249.902344	-21.289062
405530.683945	3.266665	35.933311	0.518857
405531.757987	3.265599	54.589844	-189.941406
405531.759989	3.267454	54.589844	-189.941406
405531.761989	3.267407	54.589844	-189.941406
405531.763989	3.267007	35.937080	0.405397
405532.774032	3.265649	245.703125	-23.046875
405532.778033	3.267047	245.703125	-23.046875
405532.780034	3.266936	245.703125	-23.046875
405532.782034	3.266861	35.935474	0.370176
405533.858085	3.267807	45.703125	-196.972656
405533.860087	3.267282	45.703125	-196.972656
405533.862087	3.267188	35.939064	0.361886
405534.872118	3.266971	243.945312	-23.925781
405534.874120	3.267482	243.945312	-23.925781
405534.876124	3.267147	243.945312	-23.925781
405534.878123	3.267051	35.937557	0.384741
405535.952209	3.265273	48.535156	-193.164062
405535.954210	3.267375	48.535156	-193.164062
405535.956210	3.267242	48.535156	-193.164062
405535.958209	3.266947	35.936417	0.322602
405536.936197	3.266649	247.363281	-22.949219
405536.938201	3.267371	247.363281	-22.949219
405536.940199	3.267153	247.363281	-22.949219
405536.942200	3.267100	35.938099	0.400594
405538.016249	3.264161	49.609375	-185.449219
405538.018256	3.266838	49.609375	-185.449219
405538.020257	3.266969	49.609375	-185.449219
405538.022258	3.266711	35.933826	0.390254
405539.034272	3.267543	244.238281	-22.265625
405539.036274	3.267444	244.238281	-22.265625
405539.038274	3.267272	35.939995	0.348493
405540.114323	3.266214	49.218750	-174.121094
405540.116323	3.267433	49.218750	-174.121094
405540.118325	3.267000	49.218750	-174.121094
405540.120324	3.266894	35.935829	0.352546
405541.132884	3.267502	237.988281	-22.265625
405541.134884	3.266944	237.988281	-22.265625
405541.136884	3.266953	35.936485	0.426315
405542.178905	3.266165	50.097656	-161.132812
405542.180906	3.267189	50.097656	-161.132812
405542.182906	3.266792	50.097656	-161.132812
405542.184907	3.266666	35.933331	0.404547
405543.194901	3.266932	245.703125	-20.703125
405543.196904	3.266931	245.703125	-20.703125
405543.198904	3.267389	245.703125	-20.703125
405543.200904	3.267267	35.939941	0.384139
405544.274961	3.264299	41.699219	-154.785156
405544.276964	3.266927	41.699219	-154.785156
405544.278965	3.267052	41.699219	-154.785156
405544.280965	3.266715	35.933865	0.370073
405545.290995	3.264971	244.628906	-21.289062
405545.292996	3.267173	244.628906	-21.289062
405545.294995	3.267164	244.628906	-21.289062
405545.296995	3.266894	35.935829	0.374521
405546.341968	3.266318	46.191406	-156.152344
405546.343969	3.267168	46.191406	-156.152344
405546.345971	3.266926	35.936184	0.401993
405547.388525	3.265730	244.726562	-23.339844
405547.390528	3.267489	244.726562	-23.339844
405547.392529	3.267226	244.726562	-23.339844
405547.394528	3.266979	35.936768	0.341388
405548.437472	3.266288	34.277344	-171.093750
405548.441473	3.266932	34.277344	-171.093750
405548.443474	3.266736	34.277344	-171.093750
405548.445476	3.266723	35.933952	0.348412
405549.486007	3.266173	245.507812	-25.781250
405549.488008	3.267234	245.507812	-25.781250
405549.490009	3.266939	245.507812	-25.781250
405549.494006	3.266746	35.934208	0.319127
405550.500961	3.264680	35.156250	-188.867187
405550.502964	3.266910	35.156250	-188.867187
405550.504963	3.267034	35.156250	-188.867187
405550.508961	3.266840	35.935246	0.413715
405551.550997	3.266906	255.859375	-27.929687
405551.552999	3.267486	255.859375	-27.929687
405551.556998	3.267043	255.859375	-27.929687
405551.559001	3.267065	35.937717	0.408170
405552.601574	3.267267	31.640625	-212.597656
405552.603577	3.266924	31.640625	-212.597656
405552.605577	3.266763	35.934395	0.361355
405553.648132	3.266843	255.761719	-31.445312
405553.650136	3.267362	255.761719	-31.445312
405553.652134	3.266957	255.761719	-31.445312
405553.654135	3.266961	35.936573	0.372102
405554.663041	3.265948	37.402344	-223.242187
405554.665043	3.267690	37.402344	-223.242187
405554.667042	3.267402	37.402344	-223.242187
405554.669041	3.267173	35.938908	0.417575
405555.745122	3.266534	250.292969	-33.984375
405555.747124	3.267101	250.292969	-33.984375
405555.749125	3.266811	250.292969	-33.984375
405555.751125	3.266676	35.933437	0.325512
405556.761142	3.266926	37.695312	-233.203125
405556.763144	3.267443	37.695312	-233.203125
405556.765144	3.267077	37.695312	-233.203125
405556.767145	3.266962	35.936584	0.385158
405557.809739	3.266683	260.449219	-34.863281
405557.811742	3.267224	260.449219	-34.863281
405557.813742	3.266836	260.449219	-34.863281
405557.815743	3.266729	35.934021	0.384560
405558.860326	3.267465	34.472656	-241.015625
405558.862328	3.267003	34.472656	-241.015625
405558.866327	3.267025	35.937275	0.337232
405559.906905	2.408551	253.710937	-36.132812
405559.908907	3.267363	253.710937	-36.132812
405559.910907	3.266998	253.710937	-36.132812
405559.912906	3.266931	35.936237	0.421886
405560.920950	3.263891	37.500000	-239.843750
405560.922952	3.267301	37.500000	-239.843750
405560.924952	3.267380	37.500000	-239.843750
405560.926951	3.267106	37.500000	-239.843750
405560.928951	3.267097	35.938072	0.416624
405561.970968	3.266479	261.621094	-36.230469
405561.972971	3.267147	261.621094	-36.230469
405561.974971	3.266821	261.621094	-36.230469
405561.976970	3.266691	35.933605	0.405548
405563.019031	3.266421	32.910156	-243.066406
405563.021032	3.267740	32.910156	-243.066406
405563.023031	3.267457	32.910156	-243.066406
405563.025032	3.267332	35.940651	0.374273
405564.067120	3.265331	259.667969	-36.230469
405564.071122	3.267250	259.667969	-36.230469
405564.073123	3.266972	259.667969	-36.230469
405564.075124	3.266925	35.936176	0.342203
405565.116103	3.265925	29.687500	-249.902344
405565.118106	3.267560	29.687500	-249.902344
405565.120105	3.267263	29.687500	-249.902344
405565.122106	3.267087	35.937958	0.302241
405566.166134	3.267327	258.984375	-37.792969
405566.168137	3.267295	258.984375	-37.792969
405566.170136	3.267036	35.937397	0.762352
405567.181068	3.267114	36.914062	-232.226562
405567.183071	3.267710	36.914062	-232.226562
405567.185071	3.267386	36.914062	-232.226562
405567.187074	3.267284	35.940121	0.405140
405568.231105	3.267652	261.621094	-35.839844
405568.233107	3.267326	261.621094	-35.839844
405568.237107	3.267105	35.938152	0.392636
405569.277694	3.266071	29.394531	-233.300781
405569.279697	3.267416	29.394531	-233.300781
405569.281697	3.267484	29.394531	-233.300781
405569.283695	3.266885	35.935734	0.317540
405570.325718	3.264520	254.199219	-34.960937
405570.327720	3.267099	254.199219	-34.960937
405570.329719	3.267012	254.199219	-34.960937
405570.331719	3.266785	35.934635	0.359100
405571.341798	3.265604	35.839844	-213.964844
405571.343800	3.267407	35.839844	-213.964844
405571.345800	3.267221	35.839844	-213.964844
405571.347800	3.266985	35.936832	0.419768
405572.423861	3.267076	247.460937	-33.496094
405572.425863	3.267659	247.460937	-33.496094
405572.427863	3.267360	247.460937	-33.496094
405572.429864	3.267241	35.939648	0.322618
405573.439909	3.267031	29.003906	-200.585937
405573.441912	3.267715	29.003906	-200.585937
405573.443912	3.267424	29.003906	-200.585937
405573.445911	3.267246	35.939713	0.375379
405574.487958	3.266443	250.781250	-30.566406
405574.489959	3.267491	250.781250	-30.566406
405574.491959	3.267184	250.781250	-30.566406
405574.493960	3.266944	35.936382	0.382426
405575.535990	3.265326	29.003906	-179.589844
405575.537992	3.267651	29.003906	-179.589844
405575.539992	3.267398	29.003906	-179.589844
405575.541993	3.267196	35.939152	0.307719
405576.584559	3.265183	246.289062	-27.929687
405576.586560	3.267164	246.289062	-27.929687
405576.588561	3.267000	246.289062	-27.929687
405576.590561	3.266849	35.935341	0.337221
405577.601153	3.266649	37.011719	-156.933594
405577.603154	3.267450	37.011719	-156.933594
405577.605156	3.267072	37.011719	-156.933594
405577.607154	3.267039	35.937424	0.419425
405578.649209	3.265936	246.777344	-25.195312
405578.651212	3.267692	246.777344	-25.195312
405578.655211	3.267331	246.777344	-25.195312
405578.657212	3.267306	35.940369	0.392871
405579.697278	3.264471	38.867187	-140.820312
405579.699278	3.267030	38.867187	-140.820312
405579.701281	3.267093	38.867187	-140.820312
405579.705278	3.266824	35.935059	0.384769
405580.747310	3.266629	240.527344	-24.902344
405580.749317	3.267226	240.527344	-24.902344
405580.751319	3.266792	240.527344	-24.902344
405580.753318	3.266728	35.934006	0.382563
405581.795374	3.266646	40.136719	-136.328125
405581.797375	3.267803	40.136719	-136.328125
405581.799374	3.267493	40.136719	-136.328125
405581.801373	3.267308	35.940384	0.350529
405582.813426	3.267071	245.410156	-23.339844
405582.815430	3.266747	245.410156	-23.339844
405582.817427	3.266665	35.933311	0.372797
405583.891461	3.264336	38.476562	-138.085937
405583.893465	3.267023	38.476562	-138.085937
405583.895465	3.267220	38.476562	-138.085937
405583.897469	3.266873	38.476562	-138.085937
405583.899473	3.266798	35.934776	0.332406
405584.907489	3.265063	245.019531	-24.023437
405584.909492	3.267342	245.019531	-24.023437
405584.911494	3.267338	245.019531	-24.023437
405584.915493	3.266964	35.936607	0.330478
405585.955481	3.263350	48.339844	-142.871094
405585.957483	3.266996	48.339844	-142.871094
405585.959483	3.267499	48.339844	-142.871094
405585.961482	3.267104	48.339844	-142.871094
405585.963482	3.267031	35.937340	0.410829
405586.969025	2.071691	247.949219	-24.707031
405586.974280	3.267168	247.949219	-24.707031
405586.976281	3.266915	247.949219	-24.707031
405586.978280	3.266743	35.934174	0.399282
405588.056336	3.267637	47.558594	-158.300781
405588.058337	3.267268	47.558594	-158.300781
405588.060337	3.267141	35.938549	0.354756
405589.070389	3.266944	245.507812	-25.781250
405589.072390	3.267311	245.507812	-25.781250
405589.074390	3.267011	245.507812	-25.781250
405589.076392	3.266957	35.936531	0.381779
405590.150431	3.265191	37.792969	-168.261719
405590.152433	3.267028	37.792969	-168.261719
405590.154433	3.266996	37.792969	-168.261719
405590.158433	3.266737	35.934101	0.323959
