time (s)	coil I (A)	last det (V)	int current (uC)
404359.190372	3.267655	11.718750	-428.808594
404359.192372	3.267255	11.718750	-428.808594
404359.194372	3.267114	35.938259	0.010123
404361.251483	3.263038	12.500000	-430.371094
404361.253483	3.266939	12.500000	-430.371094
404361.255482	3.267304	12.500000	-430.371094
404361.257483	3.267056	12.500000	-430.371094
404361.259481	3.266977	35.936752	0.022313
404363.349623	3.265640	13.281250	-430.371094
404363.351624	3.267239	13.281250	-430.371094
404363.353624	3.267055	13.281250	-430.371094
404363.355622	3.266853	35.935379	0.011966
404365.414747	3.266807	12.988281	-431.152344
404365.416748	3.267486	12.988281	-431.152344
404365.418748	3.267177	12.988281	-431.152344
404365.420748	3.267100	35.938099	0.028694
404367.510914	3.265177	13.085937	-428.320312
404367.512916	3.267156	13.085937	-428.320312
404367.514916	3.266981	13.085937	-428.320312
404367.516913	3.266826	35.935085	0.014971
404369.611153	3.267103	12.207031	-415.332031
404369.613156	3.266710	12.207031	-415.332031
404369.615155	3.266736	35.934093	0.015035
404371.673312	3.266631	12.597656	-420.214844
404371.675313	3.267536	12.597656	-420.214844
404371.677314	3.267118	12.597656	-420.214844
404371.679312	3.267024	35.937263	0.026631
404373.769459	3.264863	13.085937	-403.027344
404373.771459	3.267040	13.085937	-403.027344
404373.773460	3.267025	13.085937	-403.027344
404373.775462	3.266737	35.934109	0.015830
404375.868189	3.267030	15.625000	-376.464844
404375.870190	3.267233	15.625000	-376.464844
404375.874188	3.266979	15.625000	-376.464844
404375.876191	3.266902	35.935928	0.261540
404377.968409	3.267274	20.703125	-346.289062
404377.970412	3.267102	20.703125	-346.289062
404377.972410	3.267062	35.937683	0.004601
404380.062612	3.267123	28.027344	-330.761719
404380.064614	3.267280	28.027344	-330.761719
404380.066614	3.266951	28.027344	-330.761719
404380.068615	3.266866	35.935528	-0.001751
404382.159305	3.267202	33.007812	-310.546875
404382.161307	3.267574	33.007812	-310.546875
404382.163306	3.267155	33.007812	-310.546875
404382.165309	3.267121	35.938328	-0.013851
404384.223495	3.266710	37.109375	-333.886719
404384.225496	3.267329	37.109375	-333.886719
404384.227495	3.266967	37.109375	-333.886719
404384.229496	3.266953	35.936485	0.008490
404386.319662	3.265182	37.597656	-329.199219
404386.321664	3.267384	37.597656	-329.199219
404386.323664	3.267178	37.597656	-329.199219
404386.325664	3.266919	35.936104	-0.005508
404387.338244	3.267404	191.796875	5.078125
404387.340245	3.266993	191.796875	5.078125
404387.346242	3.266928	35.936211	-0.062475
404388.124807	3.267313	99.121094	-292.382812
404388.126807	3.266983	99.121094	-292.382812
404388.128808	3.266908	35.935989	0.426556
404389.271754	3.267518	170.117187	25.976562
404389.273754	3.267137	170.117187	25.976562
404389.275755	3.267104	35.938145	0.190192
404390.220274	3.266721	86.816406	-310.156250
404390.222275	3.267447	86.816406	-310.156250
404390.224274	3.266988	86.816406	-310.156250
404390.226276	3.266959	35.936550	0.384911
404391.368340	3.267366	170.800781	23.632812
404391.370343	3.267006	170.800781	23.632812
404391.372344	3.266928	35.936211	0.129012
404392.285278	3.266870	94.433594	-296.679687
404392.287280	3.266818	94.433594	-296.679687
404392.289280	3.266622	35.932842	0.800661
404393.431326	3.266475	168.750000	26.464844
404393.435327	3.266820	168.750000	26.464844
404393.437328	3.266654	168.750000	26.464844
404393.439328	3.266617	35.932789	0.193306
404394.381399	3.266679	93.164062	-298.242187
404394.383400	3.267664	93.164062	-298.242187
404394.385405	3.267635	93.164062	-298.242187
404394.387404	3.267173	35.938908	0.403137
404395.527446	3.264949	168.359375	25.683594
404395.529447	3.267168	168.359375	25.683594
404395.531448	3.267135	168.359375	25.683594
404395.533449	3.266875	35.935627	0.165351
404396.479502	3.266891	92.578125	-296.875000
404396.481503	3.266957	92.578125	-296.875000
404396.483503	3.266667	35.933338	0.416942
404397.624508	3.264900	167.480469	24.707031
404397.626511	3.267333	167.480469	24.707031
404397.628509	3.267319	167.480469	24.707031
404397.632508	3.266970	35.936672	0.141124
404398.542610	3.266367	100.683594	-281.835937
404398.544612	3.267596	100.683594	-281.835937
404398.546612	3.267355	100.683594	-281.835937
404398.548614	3.267217	35.939384	0.467079
404399.689187	3.265774	161.621094	31.835937
404399.691188	3.267365	161.621094	31.835937
404399.693189	3.267206	161.621094	31.835937
404399.695186	3.266977	35.936741	0.195457
404400.639202	3.264714	87.402344	-297.656250
404400.641204	3.267028	87.402344	-297.656250
404400.643205	3.266919	87.402344	-297.656250
404400.645202	3.266594	35.932533	0.418070
404402.835345	2.750225	41.503906	-354.785156
404402.837349	3.267321	41.503906	-354.785156
404402.839347	3.266899	41.503906	-354.785156
404402.841348	3.266832	35.935158	0.221205
404405.063517	3.266009	16.894531	-339.941406
404405.065520	3.267217	16.894531	-339.941406
404405.067519	3.266883	16.894531	-339.941406
404405.069520	3.266656	35.933216	0.016102
404407.161723	3.267181	12.695312	-356.250000
404407.163723	3.267432	12.695312	-356.250000
404407.165720	3.267037	12.695312	-356.250000
404407.167723	3.266962	35.936584	0.017245
404409.226432	3.266886	9.765625	-373.046875
404409.228434	3.266856	9.765625	-373.046875
404409.230433	3.266584	35.932426	0.600155
404411.322570	3.266647	9.960937	-376.757812
404411.324572	3.267148	9.960937	-376.757812
404411.326572	3.266840	9.960937	-376.757812
404411.328573	3.266787	35.934654	0.008569
404413.388794	3.267205	10.839844	-394.824219
404413.390795	3.266776	10.839844	-394.824219
404413.392795	3.266677	35.933445	0.034568
404415.482959	3.264736	10.742187	-394.042969
404415.484961	3.267296	10.742187	-394.042969
404415.486961	3.267373	10.742187	-394.042969
404415.488960	3.267001	35.937008	-0.002190
404416.597003	3.264163	227.148437	-17.089844
404416.599006	3.266824	227.148437	-17.089844
404416.601003	3.266932	227.148437	-17.089844
404416.603003	3.266697	35.933670	-0.145415
404417.285059	3.264777	69.433594	-335.937500
404417.287062	3.267376	69.433594	-335.937500
404417.289065	3.267566	69.433594	-335.937500
404417.291065	3.267264	69.433594	-335.937500
404417.293065	3.267210	35.939304	0.446596
404418.499138	3.266489	189.550781	6.738281
404418.503140	3.266575	189.550781	6.738281
404418.505141	3.266608	189.550781	6.738281
404418.507142	3.266621	35.932835	0.213930
404419.353197	3.267097	78.515625	-321.191406
404419.355200	3.266732	78.515625	-321.191406
404419.357199	3.266643	35.933075	0.627999
404420.595266	3.265525	191.113281	5.468750
404420.597266	3.267065	191.113281	5.468750
404420.599266	3.266849	191.113281	5.468750
404420.601266	3.266829	35.935123	0.105285
404421.447301	3.266238	73.730469	-327.050781
404421.449300	3.267641	73.730469	-327.050781
404421.451301	3.267443	73.730469	-327.050781
404421.453303	3.267239	35.939632	0.449612
404422.693345	3.267052	193.066406	3.222656
404422.695351	3.267550	193.066406	3.222656
404422.697349	3.267138	193.066406	3.222656
404422.699348	3.267131	35.938438	0.117834
404423.545388	3.266748	73.828125	-323.535156
404423.547389	3.267224	73.828125	-323.535156
404423.549390	3.266911	73.828125	-323.535156
404423.551391	3.266832	35.935158	0.486384
404425.710006	3.267113	41.113281	-372.265625
404425.714006	3.266801	41.113281	-372.265625
404425.716010	3.266824	35.935059	0.332424
404427.018587	3.266601	219.433594	-11.328125
404427.020589	3.267292	219.433594	-11.328125
404427.022588	3.266973	219.433594	-11.328125
404427.024589	3.266841	35.935253	-0.092289
404427.706647	3.266490	75.488281	-310.058594
404427.708649	3.267292	75.488281	-310.058594
404427.710649	3.266935	75.488281	-310.058594
404427.712649	3.266828	35.935104	0.458677
404428.918758	3.266634	180.468750	15.429687
404428.920761	3.267581	180.468750	15.429687
404428.922760	3.267205	180.468750	15.429687
404428.924761	3.267123	35.938347	0.177086
404429.802761	3.264651	75.585937	-303.808594
404429.804764	3.267031	75.585937	-303.808594
404429.806762	3.266974	75.585937	-303.808594
404429.808763	3.266685	35.933537	0.540849
404431.016834	3.266979	179.394531	14.550781
404431.018835	3.267192	179.394531	14.550781
404431.020835	3.266851	179.394531	14.550781
404431.022835	3.266815	35.934971	0.085973
404431.902886	3.267384	79.589844	-291.699219
404431.904888	3.267164	79.589844	-291.699219
404431.906889	3.266989	35.936886	0.458892
404433.081889	3.267280	173.144531	19.921875
404433.083892	3.267036	173.144531	19.921875
404433.085891	3.266975	35.936726	0.159742
404433.997931	3.266230	82.812500	-289.062500
404433.999931	3.267272	82.812500	-289.062500
404434.001931	3.266867	82.812500	-289.062500
404434.003930	3.266800	35.934803	0.457638
404435.179956	3.267328	175.292969	16.894531
404435.181957	3.266991	175.292969	16.894531
404435.183958	3.266990	35.936893	0.141918
404436.093947	3.264229	79.492187	-294.433594
404436.095956	3.267024	79.492187	-294.433594
404436.097961	3.267110	79.492187	-294.433594
404436.099958	3.266784	79.492187	-294.433594
404436.101960	3.266764	35.934402	0.451157
404437.242078	3.266659	176.074219	18.945312
404437.244080	3.267537	176.074219	18.945312
404437.246080	3.267137	176.074219	18.945312
404437.248079	3.267070	35.937771	0.202843
404438.160097	3.267004	93.945312	-281.250000
404438.162099	3.267416	93.945312	-281.250000
404438.164100	3.267093	93.945312	-281.250000
404438.166100	3.266986	35.936852	0.670897
404439.306195	3.266289	177.148437	21.972656
404439.310192	3.266837	177.148437	21.972656
404439.312194	3.266719	177.148437	21.972656
404439.314195	3.266692	35.933613	0.280808
404440.258261	3.267391	93.945312	-282.714844
404440.260263	3.267131	93.945312	-282.714844
404440.262262	3.267004	35.937042	0.429483
404441.407275	3.266910	179.589844	18.457031
404441.411275	3.266799	179.589844	18.457031
404441.413277	3.266722	35.933941	0.173070
404442.353269	2.336829	88.574219	-290.625000
404442.355271	3.267329	88.574219	-290.625000
404442.357272	3.267082	88.574219	-290.625000
404442.359272	3.266864	35.935501	0.472205
404443.503301	3.267187	186.718750	11.718750
404443.505303	3.266857	186.718750	11.718750
404443.507304	3.266771	35.934483	0.444979
404444.451365	3.266754	80.175781	-304.785156
404444.453366	3.267172	80.175781	-304.785156
404444.457364	3.266796	80.175781	-304.785156
404444.459365	3.266781	35.934589	0.375214
404445.563932	3.264545	185.351562	15.234375
404445.565938	3.267326	185.351562	15.234375
404445.567936	3.267429	185.351562	15.234375
404445.569936	3.267094	35.938034	0.260753
404446.514006	3.264238	86.914062	-293.554687
404446.518005	3.267565	86.914062	-293.554687
404446.520010	3.267129	86.914062	-293.554687
404446.522007	3.267064	35.937698	0.458582
404447.662119	3.266613	186.914062	13.476562
404447.664120	3.267736	186.914062	13.476562
404447.666120	3.267342	186.914062	13.476562
404447.668120	3.267218	35.939404	0.226428
404448.612150	3.265953	79.589844	-302.441406
404448.614152	3.267311	79.589844	-302.441406
404448.616152	3.267024	79.589844	-302.441406
404448.618154	3.266881	35.935696	0.440775
404449.758216	3.264994	186.035156	13.476562
404449.760223	3.267616	186.035156	13.476562
404449.764221	3.267406	186.035156	13.476562
404449.766223	3.267360	35.940964	0.236073
404450.708289	3.263847	76.855469	-302.539062
404450.710291	3.267092	76.855469	-302.539062
404450.712293	3.267392	76.855469	-302.539062
404450.714291	3.267128	76.855469	-302.539062
404450.716292	3.267086	35.937950	0.407392
404451.860371	3.266947	183.203125	14.941406
404451.862372	3.266813	183.203125	14.941406
404451.864373	3.266762	35.934383	0.168298
404452.772881	3.264249	82.617187	-287.988281
404452.774886	3.267107	82.617187	-287.988281
404452.776890	3.267221	82.617187	-287.988281
404452.778891	3.266943	35.936371	0.498816
404453.924947	3.267041	180.078125	19.140625
404453.926950	3.267056	180.078125	19.140625
404453.928949	3.266979	35.936768	0.246023
404454.871954	3.267652	78.125000	-291.210937
404454.873957	3.267802	78.125000	-291.210937
404454.875958	3.267338	78.125000	-291.210937
404454.879955	3.267312	35.940430	0.680711
404456.018016	3.266208	178.417969	17.578125
404456.020019	3.267249	178.417969	17.578125
404456.022020	3.266833	178.417969	17.578125
404456.024019	3.266791	35.934696	0.185868
404456.940028	3.267141	71.386719	-294.042969
404456.944029	3.267066	71.386719	-294.042969
404456.946031	3.267028	35.937309	0.566397
404458.116129	3.267210	183.105469	13.574219
404458.118130	3.267171	183.105469	13.574219
404458.120130	3.266921	35.936131	0.576177
404458.998683	3.263931	79.687500	-281.054687
404459.000687	3.266932	79.687500	-281.054687
404459.002685	3.267115	79.687500	-281.054687
404459.004685	3.266765	79.687500	-281.054687
404459.006686	3.266695	35.933651	0.542747
404460.211326	3.264563	186.230469	10.937500
404460.213330	3.267275	186.230469	10.937500
404460.217326	3.266998	186.230469	10.937500
404460.219328	3.266979	35.936768	0.149606
404461.096274	3.265663	63.574219	-310.253906
404461.098277	3.267684	63.574219	-310.253906
404461.100276	3.267537	63.574219	-310.253906
404461.102277	3.267224	35.939465	0.498898
404462.310345	3.267061	191.210937	5.957031
404462.312344	3.267295	191.210937	5.957031
404462.314345	3.266877	191.210937	5.957031
404462.316343	3.266899	35.935894	0.171031
404463.192899	3.264141	57.812500	-327.148437
404463.194900	3.267458	57.812500	-327.148437
404463.198898	3.267346	57.812500	-327.148437
404463.200900	3.267228	57.812500	-327.148437
404463.202900	3.267279	35.940063	0.475300
404464.406992	3.266788	197.167969	0.000000
404464.408994	3.267256	197.167969	0.000000
404464.410993	3.266935	197.167969	0.000000
404464.412993	3.266853	35.935387	0.141334
404465.259511	3.267058	70.800781	-312.597656
404465.261513	3.267097	70.800781	-312.597656
404465.263512	3.266758	35.934341	0.499681
404466.471568	3.266711	199.609375	-0.878906
404466.473570	3.267186	199.609375	-0.878906
404466.475571	3.266921	199.609375	-0.878906
404466.477569	3.266793	35.934723	0.226546
404467.355585	3.266600	58.105469	-340.527344
404467.357585	3.267578	58.105469	-340.527344
404467.359586	3.267586	58.105469	-340.527344
404467.361587	3.267169	35.938862	0.520250
404468.568070	3.266569	201.757812	-3.515625
404468.570071	3.267632	201.757812	-3.515625
404468.572072	3.267625	201.757812	-3.515625
404468.574071	3.267151	35.938656	0.167589
404469.420660	3.267250	65.527344	-328.027344
404469.422663	3.267338	65.527344	-328.027344
404469.424664	3.267421	65.527344	-328.027344
404469.426663	3.267367	35.941032	0.623628
404470.664724	3.265638	205.468750	-6.347656
404470.666727	3.267591	205.468750	-6.347656
404470.668728	3.267274	205.468750	-6.347656
404470.670726	3.267103	35.938133	0.188393
404471.517281	3.266393	60.742187	-336.328125
404471.519282	3.267370	60.742187	-336.328125
404471.521281	3.266941	60.742187	-336.328125
404471.523283	3.266922	35.936138	0.477885
404472.729344	3.266224	202.929687	-3.320312
404472.731344	3.267708	202.929687	-3.320312
404472.737343	3.267208	202.929687	-3.320312
404472.739343	3.267250	35.939747	0.249247
404473.613362	3.264332	53.613281	-345.996094
404473.615364	3.267116	53.613281	-345.996094
404473.617363	3.267267	53.613281	-345.996094
404473.619364	3.266897	35.935867	0.505507
404474.829443	3.267301	206.054687	-6.640625
404474.831443	3.266938	206.054687	-6.640625
404474.833443	3.266818	35.934998	0.308178
404475.681470	3.267125	61.425781	-330.664062
404475.683473	3.266880	61.425781	-330.664062
404475.685474	3.266801	35.934811	0.673169
404476.923544	3.266191	204.589844	-5.761719
404476.925546	3.267495	204.589844	-5.761719
404476.927546	3.267206	204.589844	-5.761719
404476.929546	3.267123	35.938354	0.210553
404477.775557	3.265877	61.425781	-323.144531
404477.777559	3.267146	61.425781	-323.144531
404477.779559	3.266911	61.425781	-323.144531
404477.781559	3.266747	35.934216	0.508845
404478.989608	3.267085	201.171875	-2.246094
404478.991609	3.266979	201.171875	-2.246094
404478.993609	3.266757	35.934334	0.221351
404479.873666	3.266895	55.859375	-324.902344
404479.875668	3.267176	55.859375	-324.902344
404479.877665	3.266881	55.859375	-324.902344
404479.879667	3.266779	35.934570	0.580643
404481.087717	3.267321	197.656250	-0.390625
404481.091716	3.266927	197.656250	-0.390625
404481.093718	3.266933	35.936264	0.156309
404481.970264	3.266448	54.687500	-316.894531
404481.972267	3.267493	54.687500	-316.894531
404481.976263	3.267003	54.687500	-316.894531
404481.978266	3.267069	35.937763	0.457328
404483.150348	3.266711	192.578125	3.906250
404483.152348	3.267292	192.578125	3.906250
404483.154349	3.266877	192.578125	3.906250
404483.156348	3.266768	35.934448	0.275317
404484.066340	3.264912	54.199219	-309.667969
404484.070341	3.267312	54.199219	-309.667969
404484.072343	3.266994	54.199219	-309.667969
404484.076342	3.266829	35.935123	0.451675
404485.246411	3.265584	192.480469	2.441406
404485.248412	3.267192	192.480469	2.441406
404485.250414	3.267098	192.480469	2.441406
404485.252415	3.266826	35.935085	0.196504
404486.130461	3.263963	69.726562	-280.957031
404486.134460	3.267730	69.726562	-280.957031
404486.136462	3.267313	69.726562	-280.957031
404486.138463	3.267321	35.940529	0.529176
404487.310551	3.265090	188.671875	6.933594
404487.312555	3.267197	188.671875	6.933594
404487.314560	3.267197	188.671875	6.933594
404487.316556	3.266895	35.935848	0.225344
404488.228610	3.266012	70.312500	-283.203125
404488.230611	3.267486	70.312500	-283.203125
404488.232611	3.267106	70.312500	-283.203125
404488.234612	3.267025	35.937275	0.514546
404489.408659	3.266419	190.625000	3.906250
404489.410661	3.267149	190.625000	3.906250
404489.412661	3.266841	190.625000	3.906250
404489.414660	3.266688	35.933571	0.203712
404490.326731	3.267359	68.066406	-290.234375
404490.328733	3.267630	68.066406	-290.234375
404490.330734	3.267287	68.066406	-290.234375
404490.332734	3.267197	35.939163	0.595787
404491.474776	3.267144	192.675781	6.542969
404491.476778	3.266898	192.675781	6.542969
404491.478777	3.266704	35.933746	0.258273
404492.423284	3.266742	62.890625	-302.832031
404492.427284	3.267091	62.890625	-302.832031
404492.429288	3.267093	62.890625	-302.832031
404492.431286	3.267001	35.937008	0.442324
404493.569348	3.264896	196.582031	1.757812
404493.571349	3.267173	196.582031	1.757812
404493.573349	3.267019	196.582031	1.757812
404493.575349	3.266796	35.934757	0.253903
404494.489408	3.267671	81.054687	-280.859375
404494.491411	3.267317	81.054687	-280.859375
404494.493411	3.267183	35.939011	0.492795
404495.634396	3.266193	198.046875	4.003906
404495.638396	3.266751	198.046875	4.003906
404495.640397	3.266708	198.046875	4.003906
404495.642399	3.266654	35.933189	0.288168
404496.588400	3.267428	71.972656	-294.726562
404496.590400	3.267255	71.972656	-294.726562
404496.592401	3.267218	35.939404	0.471966
404497.730478	3.264114	199.414062	2.636719
404497.732479	3.267288	199.414062	2.636719
404497.734481	3.267412	199.414062	2.636719
404497.738477	3.267112	199.414062	2.636719
404497.740479	3.267012	35.937134	0.285686
404498.681008	3.265276	69.335937	-298.828125
404498.683010	3.267653	69.335937	-298.828125
404498.685010	3.267575	69.335937	-298.828125
404498.687009	3.267359	35.940952	0.421176
404499.795564	3.265854	200.000000	3.515625
404499.797567	3.267647	200.000000	3.515625
404499.799567	3.267381	200.000000	3.515625
404499.801565	3.267163	35.938789	0.339037
404500.779603	3.267066	61.132812	-306.347656
404500.781605	3.267432	61.132812	-306.347656
404500.783603	3.267124	61.132812	-306.347656
404500.785604	3.267046	35.937508	0.472658
404501.893641	3.266966	197.949219	4.980469
404501.895642	3.267543	197.949219	4.980469
404501.897643	3.267105	197.949219	4.980469
404501.899645	3.267103	35.938133	0.267053
404502.844176	3.267151	74.511719	-283.789062
404502.846178	3.267429	74.511719	-283.789062
404502.848179	3.267047	74.511719	-283.789062
404502.850178	3.266960	35.936558	0.627339
404503.990240	3.266444	196.875000	4.003906
404503.992242	3.267234	196.875000	4.003906
404503.994240	3.266901	196.875000	4.003906
404503.996241	3.266841	35.935253	0.286670
404504.941221	3.266891	68.847656	-284.960937
404504.943224	3.267239	68.847656	-284.960937
404504.945224	3.266864	68.847656	-284.960937
404504.947224	3.266806	35.934864	0.417209
404506.055225	3.266705	193.164062	6.738281
404506.057226	3.267255	193.164062	6.738281
404506.059227	3.266894	193.164062	6.738281
404506.061227	3.266805	35.934853	0.353410
404507.007256	3.267648	65.917969	-279.687500
404507.009257	3.267276	65.917969	-279.687500
404507.011258	3.267168	35.938843	0.496339
404508.187313	3.267236	194.921875	1.562500
404508.189315	3.266828	194.921875	1.562500
404508.191317	3.266800	35.934803	0.400199
404509.101904	3.266291	52.734375	-295.410156
404509.103904	3.267425	52.734375	-295.410156
404509.105906	3.267098	52.734375	-295.410156
404509.107907	3.267027	35.937302	0.429320
404510.248020	3.264338	194.335937	3.710937
404510.250022	3.266902	194.335937	3.710937
404510.252020	3.266988	194.335937	3.710937
404510.254022	3.266683	35.933517	0.255647
404511.166044	3.265821	58.105469	-287.109375
404511.168046	3.267251	58.105469	-287.109375
404511.170048	3.267072	58.105469	-287.109375
404511.172049	3.266884	35.935722	0.505017
404512.346124	3.266482	198.046875	0.781250
404512.348126	3.267315	198.046875	0.781250
404512.350125	3.266996	198.046875	0.781250
404512.352125	3.266895	35.935848	0.268448
404513.270181	3.266501	42.968750	-312.109375
404513.272182	3.266604	35.932640	0.475286
404514.444269	3.266976	202.050781	-2.343750
404514.446269	3.267040	202.050781	-2.343750
404514.448270	3.267057	35.937630	0.572980
404515.328241	2.406080	52.832031	-304.980469
404515.330245	3.267537	52.832031	-304.980469
404515.334243	3.267029	52.832031	-304.980469
404515.336242	3.267031	35.937340	0.482914
404516.542299	3.267325	208.886719	-8.007812
404516.544301	3.266980	208.886719	-8.007812
404516.548299	3.266813	35.934944	0.232321
404517.426353	3.267302	40.917969	-332.226562
404517.428355	3.267251	40.917969	-332.226562
404517.432353	3.266940	35.936344	0.870491
404518.604402	3.265971	208.886719	-6.445312
404518.606404	3.267524	208.886719	-6.445312
404518.608409	3.267287	208.886719	-6.445312
404518.610411	3.267047	35.937515	0.277580
404519.489338	3.265892	57.714844	-311.816406
404519.491339	3.267258	57.714844	-311.816406
404519.493341	3.266911	57.714844	-311.816406
404519.495340	3.266702	35.933720	0.539915
404520.701428	3.265393	211.425781	-10.058594
404520.703430	3.267298	211.425781	-10.058594
404520.705431	3.267056	211.425781	-10.058594
404520.707429	3.266816	35.934978	0.237833
404521.585963	3.265092	51.757812	-323.925781
404521.587966	3.267059	51.757812	-323.925781
404521.589966	3.267001	51.757812	-323.925781
404521.591965	3.266778	35.934563	0.477937
404522.800047	3.266966	215.722656	-14.453125
404522.802043	3.267013	215.722656	-14.453125
404522.804044	3.266800	215.722656	-14.453125
404522.806044	3.266733	35.934067	0.251346
404523.686083	3.267123	40.332031	-342.480469
404523.688084	3.266772	40.332031	-342.480469
404523.690085	3.266684	35.933525	0.428823
404524.864151	3.266546	212.890625	-12.304687
404524.866151	3.267046	212.890625	-12.304687
404524.868151	3.266656	212.890625	-12.304687
404524.870152	3.266611	35.932720	0.274733
404525.748165	3.266340	54.589844	-318.750000
404525.750166	3.267504	54.589844	-318.750000
404525.752166	3.267174	54.589844	-318.750000
404525.754166	3.267023	35.937256	0.515156
404526.960244	3.265645	214.257812	-12.500000
404526.962249	3.267205	214.257812	-12.500000
404526.964248	3.266979	214.257812	-12.500000
404526.966246	3.266793	35.934723	0.245386
404527.844281	3.264192	51.562500	-320.800781
404527.846282	3.267090	51.562500	-320.800781
404527.848284	3.267247	51.562500	-320.800781
404527.850284	3.266967	51.562500	-320.800781
404527.852283	3.266926	35.936184	0.511847
404529.060335	3.267661	213.085937	-11.914062
404529.062337	3.267147	213.085937	-11.914062
404529.064337	3.267026	35.937283	0.259421
404529.943307	3.267404	41.015625	-329.003906
404529.945307	3.267484	41.015625	-329.003906
404529.947308	3.267340	41.015625	-329.003906
404529.949307	3.267276	35.940033	0.602133
404531.121343	3.265189	210.058594	-8.984375
404531.123344	3.267431	210.058594	-8.984375
404531.125345	3.267365	210.058594	-8.984375
404531.127345	3.267048	35.937531	0.277812
404532.009388	3.267095	51.269531	-303.222656
404532.011391	3.266801	51.269531	-303.222656
404532.013390	3.266725	35.933979	0.501832
404533.221507	3.267450	209.277344	-8.789062
404533.223511	3.267107	209.277344	-8.789062
404533.225509	3.266985	35.936832	0.237560
404534.103529	3.265510	51.855469	-292.871094
404534.105531	3.267102	51.855469	-292.871094
404534.107530	3.266935	51.855469	-292.871094
404534.109529	3.266682	35.933498	0.490466
404535.284091	3.266528	204.003906	-2.734375
404535.286092	3.267240	204.003906	-2.734375
404535.288092	3.266848	204.003906	-2.734375
404535.290090	3.266779	35.934570	0.303350
404536.200679	3.265534	46.777344	-290.136719
404536.202681	3.267005	46.777344	-290.136719
404536.204680	3.266856	46.777344	-290.136719
404536.206681	3.266647	35.933117	0.430890
404537.380778	3.265726	202.734375	-4.980469
404537.382778	3.267159	202.734375	-4.980469
404537.384780	3.266801	202.734375	-4.980469
404537.386779	3.266603	35.932629	0.219826
404538.298788	3.266828	47.949219	-282.714844
404538.300790	3.267394	47.949219	-282.714844
404538.302789	3.267097	47.949219	-282.714844
404538.304789	3.266957	35.936523	0.426922
404539.444869	3.265745	200.390625	-0.585937
404539.446871	3.267315	200.390625	-0.585937
404539.448871	3.267067	200.390625	-0.585937
404539.450872	3.266883	35.935715	0.296364
404540.362922	3.266640	62.207031	-262.792969
404540.364924	3.267485	62.207031	-262.792969
404540.366927	3.267072	62.207031	-262.792969
404540.368926	3.266989	35.936874	0.509229
404541.542966	3.266863	201.953125	-3.613281
404541.544969	3.267248	201.953125	-3.613281
404541.546968	3.266895	201.953125	-3.613281
404541.548970	3.266872	35.935593	0.332913
404542.460979	3.267040	69.140625	-253.613281
404542.462982	3.267042	69.140625	-253.613281
404542.464981	3.266883	35.935715	0.500358
404543.608003	3.267055	203.222656	-1.074219
404543.610004	3.266980	203.222656	-1.074219
404543.612005	3.266792	35.934711	0.323596
404544.556967	3.266285	62.109375	-271.484375
404544.558971	3.267315	62.109375	-271.484375
404544.560969	3.267040	62.109375	-271.484375
404544.562970	3.266877	35.935642	0.450284
404545.703542	3.265564	204.589844	-3.710937
404545.705546	3.267125	204.589844	-3.710937
404545.707544	3.266908	204.589844	-3.710937
404545.709545	3.266765	35.934410	0.277436
404546.653598	3.265282	60.058594	-275.878906
404546.655601	3.267278	60.058594	-275.878906
404546.657601	3.267158	60.058594	-275.878906
404546.659601	3.266961	35.936565	0.427503
404547.767705	3.265530	207.128906	-4.199219
404547.769708	3.267405	207.128906	-4.199219
404547.771707	3.267270	207.128906	-4.199219
404547.773708	3.267061	35.937675	0.319754
404548.717754	3.264585	59.375000	-279.687500
404548.719755	3.266920	59.375000	-279.687500
404548.721755	3.266963	59.375000	-279.687500
404548.723754	3.266724	35.933960	0.506762
404549.866273	3.266870	208.789062	-4.101562
404549.868274	3.267234	208.789062	-4.101562
404549.870275	3.266795	208.789062	-4.101562
404549.872273	3.266696	35.933659	0.354943
404550.815210	3.265506	57.714844	-285.449219
404550.817211	3.267338	57.714844	-285.449219
404550.819211	3.267189	57.714844	-285.449219
404550.821211	3.267008	35.937088	0.438247
404551.963287	3.266716	208.105469	-6.445312
404551.965288	3.267152	208.105469	-6.445312
404551.969285	3.266706	208.105469	-6.445312
404551.971287	3.266693	35.933624	0.389060
404552.913330	3.267217	54.687500	-285.253906
404552.915334	3.267529	54.687500	-285.253906
404552.917334	3.267245	54.687500	-285.253906
404552.919335	3.267178	35.938957	0.412281
404554.029367	3.266940	208.789062	-4.589844
404554.031370	3.266716	208.789062	-4.589844
404554.033370	3.266634	35.932976	0.338804
404554.977419	3.266148	65.136719	-264.648437
404554.979420	3.267127	65.136719	-264.648437
404554.981420	3.266804	65.136719	-264.648437
404554.983420	3.266670	35.933376	0.488266
404556.123535	3.265385	205.468750	-4.101562
404556.125538	3.267529	205.468750	-4.101562
404556.127538	3.267314	205.468750	-4.101562
404556.129538	3.267113	35.938240	0.298594
404557.073631	3.265113	57.421875	-265.039062
404557.075633	3.267488	57.421875	-265.039062
404557.077631	3.267405	57.421875	-265.039062
404557.079632	3.267164	35.938797	0.445182
404558.221735	3.266896	205.371094	-4.785156
404558.223737	3.267429	205.371094	-4.785156
404558.225739	3.267103	205.371094	-4.785156
404558.227737	3.267005	35.937054	0.293516
404559.139799	3.266923	63.574219	-249.511719
404559.141803	3.266992	63.574219	-249.511719
404559.147800	3.266617	63.574219	-249.511719
404559.149802	3.266676	35.933437	0.751665
404560.317833	3.265904	203.320312	-6.152344
404560.319834	3.267713	203.320312	-6.152344
404560.321833	3.267526	203.320312	-6.152344
404560.323834	3.267313	35.940437	0.245426
404561.237889	3.267196	52.148437	-260.546875
404561.239889	3.266842	52.148437	-260.546875
404561.241890	3.266675	35.933426	0.457986
404562.382434	3.265536	204.101562	-3.027344
404562.384435	3.267190	204.101562	-3.027344
404562.386435	3.266948	204.101562	-3.027344
404562.388435	3.266819	35.935005	0.313768
404563.300439	3.266229	50.390625	-262.792969
404563.304438	3.266645	50.390625	-262.792969
404563.306440	3.266646	50.390625	-262.792969
404563.308441	3.266596	35.932552	0.499891
404564.480501	3.266812	207.714844	-6.835937
404564.482504	3.267452	207.714844	-6.835937
404564.484505	3.267097	207.714844	-6.835937
404564.486504	3.266957	35.936531	0.313874
404565.397500	3.266446	40.039062	-282.714844
404565.399501	3.267444	40.039062	-282.714844
404565.401502	3.267147	40.039062	-282.714844
404565.403503	3.267030	35.937328	0.423463
404566.579550	3.267494	211.523437	-10.839844
404566.581552	3.267099	211.523437	-10.839844
404566.583553	3.266953	35.936485	0.279090
404567.461562	3.266092	47.167969	-280.371094
404567.463564	3.267500	47.167969	-280.371094
404567.465564	3.267196	47.167969	-280.371094
404567.467564	3.267008	35.937088	0.517098
404568.675612	3.267333	214.648437	-12.988281
404568.677617	3.267308	214.648437	-12.988281
404568.679615	3.267040	35.937443	0.231930
404569.559623	3.266992	38.964844	-302.441406
404569.561624	3.267529	38.964844	-302.441406
404569.563624	3.267487	38.964844	-302.441406
404569.565625	3.267051	35.937565	0.500812
404570.737659	3.263975	217.578125	-14.746094
404570.741663	3.267081	217.578125	-14.746094
404570.743665	3.266784	217.578125	-14.746094
404570.745663	3.266831	35.935139	0.304901
404571.655698	2.681041	36.132812	-313.183594
404571.657699	3.267394	36.132812	-313.183594
404571.659700	3.267172	36.132812	-313.183594
404571.661701	3.266970	35.936672	0.398391
404572.836256	3.266709	219.726562	-16.796875
404572.838257	3.267169	219.726562	-16.796875
404572.840257	3.266794	219.726562	-16.796875
404572.844256	3.266728	35.934013	0.297615
404573.720303	3.265882	47.167969	-299.511719
404573.722303	3.267091	47.167969	-299.511719
404573.724304	3.266840	47.167969	-299.511719
404573.726307	3.266673	35.933403	0.497859
404574.934424	3.267337	220.703125	-19.628906
404574.936426	3.267118	220.703125	-19.628906
404574.938426	3.266985	35.936832	0.243172
404575.818471	2.668971	37.597656	-315.332031
404575.820475	3.267245	37.597656	-315.332031
404575.822473	3.266865	37.597656	-315.332031
404575.824474	3.266744	35.934181	0.588819
404576.996554	3.264610	221.679687	-17.089844
404576.998557	3.267172	221.679687	-17.089844
404577.002554	3.266814	221.679687	-17.089844
404577.004558	3.266861	35.935474	0.318582
404577.914600	3.265825	38.183594	-312.597656
404577.916601	3.267363	38.183594	-312.597656
404577.918602	3.267047	38.183594	-312.597656
404577.920600	3.266873	35.935600	0.404660
404579.093578	3.263929	220.703125	-17.480469
404579.095585	3.267027	220.703125	-17.480469
404579.097590	3.267062	220.703125	-17.480469
404579.099595	3.266794	35.934731	0.280014
404579.980134	3.265193	48.828125	-290.136719
404579.982137	3.267354	48.828125	-290.136719
404579.984138	3.267030	48.828125	-290.136719
404579.988136	3.267078	35.937859	0.481979
404581.158227	3.265469	219.726562	-15.332031
404581.160229	3.267558	219.726562	-15.332031
404581.162229	3.267397	219.726562	-15.332031
404581.164229	3.267117	35.938286	0.324301
404582.076259	3.266222	41.210937	-293.847656
404582.078258	3.267684	41.210937	-293.847656
404582.080258	3.267282	41.210937	-293.847656
404582.082260	3.267142	35.938560	0.430648
404583.257238	3.267152	216.992187	-13.964844
404583.259238	3.267182	216.992187	-13.964844
404583.261238	3.266824	35.935059	0.768038
404584.140168	2.678437	48.339844	-270.507812
404584.142170	3.267097	48.339844	-270.507812
404584.144170	3.266974	48.339844	-270.507812
404584.146169	3.266771	35.934483	0.529196
404585.354201	3.267018	214.550781	-12.792969
404585.356203	3.267118	214.550781	-12.792969
404585.358204	3.266744	214.550781	-12.792969
404585.360204	3.266717	35.933887	0.589790
404586.238191	3.266679	42.773437	-268.261719
404586.240193	3.267290	42.773437	-268.261719
404586.242194	3.266870	42.773437	-268.261719
404586.244193	3.266860	35.935459	0.487808
404587.416309	3.263524	212.500000	-9.570312
404587.418310	3.267188	212.500000	-9.570312
404587.420311	3.267412	212.500000	-9.570312
404587.424309	3.267051	212.500000	-9.570312
404587.426316	3.266959	35.936550	0.321729
404588.336356	3.267116	46.093750	-256.054687
404588.338360	3.267040	46.093750	-256.054687
404588.340365	3.266798	35.934776	0.438637
404589.516378	3.267457	208.984375	-11.035156
404589.518381	3.267196	208.984375	-11.035156
404589.522379	3.266990	35.936893	0.280820
404590.434477	3.267416	38.476562	-261.914062
404590.436479	3.266977	38.476562	-261.914062
404590.438478	3.266916	35.936081	0.393339
404591.578982	3.266381	210.156250	-8.984375
404591.580984	3.267545	210.156250	-8.984375
404591.582986	3.267556	210.156250	-8.984375
404591.584984	3.267087	35.937958	0.305666
404592.529068	3.266076	45.214844	-251.171875
404592.531068	3.267239	45.214844	-251.171875
404592.533068	3.267029	45.214844	-251.171875
404592.535069	3.266882	35.935707	0.401409
404593.677140	3.267533	211.035156	-9.082031
404593.679142	3.267634	211.035156	-9.082031
404593.681141	3.267311	211.035156	-9.082031
404593.683142	3.267280	35.940075	0.289938
404594.596102	3.267106	57.421875	-241.015625
404594.598101	3.266698	57.421875	-241.015625
404594.600104	3.266649	35.933144	0.465560
404595.742661	3.266969	213.476562	-8.203125
404595.744663	3.266755	213.476562	-8.203125
404595.746663	3.266685	35.933537	0.330590
404596.691628	3.266831	57.324219	-246.875000
404596.693633	3.267234	57.324219	-246.875000
404596.695631	3.267184	57.324219	-246.875000
404596.697631	3.266817	35.934990	0.447880
404597.840210	3.267338	212.597656	-12.109375
404597.842211	3.266896	212.597656	-12.109375
404597.844212	3.266856	35.935413	0.291597
404598.788249	3.266234	48.046875	-262.109375
404598.790252	3.267432	48.046875	-262.109375
404598.792252	3.266985	48.046875	-262.109375
404598.794252	3.266872	35.935593	0.398908
404599.902295	3.266331	217.285156	-8.593750
404599.904294	3.267405	217.285156	-8.593750
404599.906295	3.267104	217.285156	-8.593750
404599.908295	3.266969	35.936665	0.358384
404600.852284	3.266147	55.175781	-253.808594
404600.854286	3.267292	55.175781	-253.808594
404600.856286	3.267108	55.175781	-253.808594
404600.858287	3.266872	35.935593	0.470945
404601.998347	3.264616	216.503906	-10.449219
404602.000353	3.267436	216.503906	-10.449219
404602.002354	3.267641	216.503906	-10.449219
404602.004353	3.267272	35.939987	0.324365
404602.950963	3.267212	52.832031	-255.078125
404602.952972	3.267107	52.832031	-255.078125
404602.954976	3.266902	35.935928	0.448200
404604.097021	3.267010	214.257812	-11.425781
404604.099023	3.267346	214.257812	-11.425781
404604.101024	3.267037	214.257812	-11.425781
404604.103023	3.266954	35.936493	0.303929
404605.049604	3.267428	50.000000	-251.953125
404605.051608	3.267466	50.000000	-251.953125
404605.053606	3.267064	35.937706	0.602036
404606.162242	3.267156	214.160156	-9.765625
404606.164241	3.267200	214.160156	-9.765625
404606.166242	3.266915	35.936062	0.345501
404607.110278	2.451205	51.757812	-242.187500
404607.112282	3.267442	51.757812	-242.187500
404607.114283	3.267346	51.757812	-242.187500
404607.116281	3.267084	35.937923	0.480629
404608.258750	3.266710	212.402344	-10.156250
404608.262755	3.266741	212.402344	-10.156250
404608.264754	3.266695	212.402344	-10.156250
404608.266756	3.266643	35.933075	0.305377
404609.209370	3.267090	48.828125	-238.281250
404609.213368	3.266770	48.828125	-238.281250
404609.215370	3.266773	35.934502	0.751275
404610.355910	3.267371	210.937500	-10.449219
404610.357912	3.267682	210.937500	-10.449219
404610.359912	3.267302	210.937500	-10.449219
404610.361912	3.267222	35.939445	0.303428
404611.271917	3.264977	48.144531	-231.738281
404611.273917	3.267182	48.144531	-231.738281
404611.275918	3.267113	48.144531	-231.738281
404611.277919	3.266925	35.936176	0.479998
404612.451985	3.265577	210.449219	-12.988281
404612.453988	3.265656	210.449219	-12.988281
404612.455987	3.266910	210.449219	-12.988281
404612.457987	3.266682	35.933498	0.256507
404613.372071	3.267072	44.042969	-234.179687
404613.374072	3.266684	44.042969	-234.179687
404613.376073	3.266613	35.932739	0.412162
404614.517023	3.266406	213.964844	-11.425781
404614.519027	3.267079	213.964844	-11.425781
404614.523023	3.266590	213.964844	-11.425781
404614.525026	3.266578	35.932354	0.328953
404615.435073	3.266974	46.875000	-234.960937
404615.437074	3.267139	46.875000	-234.960937
404615.439074	3.267001	46.875000	-234.960937
404615.441074	3.266861	35.935474	0.491176
404616.613699	3.265833	216.992187	-14.062500
404616.615701	3.267118	216.992187	-14.062500
404616.617702	3.266798	216.992187	-14.062500
404616.619702	3.266715	35.933865	0.308274
404617.531775	3.266678	32.519531	-262.402344
404617.535774	3.266913	32.519531	-262.402344
404617.537777	3.266871	32.519531	-262.402344
404617.539776	3.266798	35.934784	0.406654
404618.709829	3.263783	220.410156	-16.894531
404618.711832	3.266949	220.410156	-16.894531
404618.713831	3.267309	220.410156	-16.894531
404618.715831	3.266886	220.410156	-16.894531
404618.717831	3.266858	35.935440	0.290397
404619.627900	3.265233	32.714844	-272.363281
404619.629902	3.267276	32.714844	-272.363281
404619.631903	3.267203	32.714844	-272.363281
404619.633903	3.266906	35.935963	0.380058
404620.807940	2.759591	222.851562	-20.117187
404620.809940	3.267142	222.851562	-20.117187
404620.811942	3.266874	222.851562	-20.117187
404620.813940	3.266710	35.933811	0.253100
404621.692002	3.264441	31.835937	-283.886719
404621.694002	3.266970	31.835937	-283.886719
404621.696001	3.267065	31.835937	-283.886719
404621.698001	3.266749	35.934235	0.427904
404622.874098	3.267378	226.757812	-19.628906
404622.876098	3.267188	226.757812	-19.628906
404622.878098	3.267040	35.937435	0.322657
404623.791071	3.267043	27.246094	-294.140625
404623.793074	3.267147	27.246094	-294.140625
404623.795074	3.266815	35.934963	0.372536
404624.969133	3.265460	226.855469	-22.753906
404624.971133	3.267170	226.855469	-22.753906
404624.973133	3.266989	226.855469	-22.753906
404624.975133	3.266741	35.934147	0.285619
404625.855181	3.267332	36.523437	-282.031250
404625.857181	3.267605	36.523437	-282.031250
404625.859184	3.267233	36.523437	-282.031250
404625.861184	3.267251	35.939754	0.601616
404627.033214	3.264515	227.734375	-21.386719
404627.037214	3.267117	227.734375	-21.386719
404627.039216	3.266770	227.734375	-21.386719
404627.041217	3.266741	35.934147	0.364466
404627.951301	3.265556	35.839844	-283.886719
404627.953303	3.267129	35.839844	-283.886719
404627.955302	3.266891	35.839844	-283.886719
404627.957303	3.266770	35.934467	0.404994
404629.134251	3.266987	227.246094	-21.875000
404629.136254	3.266814	227.246094	-21.875000
404629.138252	3.266768	35.934448	0.618337
404630.048802	3.266437	25.683594	-290.722656
404630.050803	3.267391	25.683594	-290.722656
404630.052802	3.266978	25.683594	-290.722656
404630.054801	3.266977	35.936752	0.363334
404631.228850	3.266463	226.269531	-21.484375
404631.230852	3.267206	226.269531	-21.484375
404631.232853	3.266740	226.269531	-21.484375
404631.234852	3.266683	35.933517	0.287794
404632.115362	3.267248	41.992187	-261.035156
404632.119360	3.266747	41.992187	-261.035156
404632.121363	3.266744	35.934181	0.453616
404633.293400	3.267048	224.609375	-18.750000
404633.295400	3.267341	224.609375	-18.750000
404633.297400	3.267054	224.609375	-18.750000
404633.299400	3.266976	35.936733	0.422332
404634.211436	3.267362	35.742187	-260.546875
404634.213440	3.267362	35.742187	-260.546875
404634.215439	3.267089	35.937977	0.381968
404635.389508	3.265874	221.093750	-18.750000
404635.391511	3.267572	221.093750	-18.750000
404635.393509	3.267230	221.093750	-18.750000
404635.395508	3.267033	35.937363	0.282594
404636.307567	3.266235	26.953125	-256.933594
404636.309567	3.266983	26.953125	-256.933594
404636.311567	3.266704	26.953125	-256.933594
404636.313567	3.266543	35.931976	0.369386
404637.453646	3.264945	220.605469	-14.160156
404637.455645	3.266973	220.605469	-14.160156
404637.459644	3.266624	220.605469	-14.160156
404637.465643	3.266585	35.932438	0.354096
404638.370630	3.263645	39.062500	-230.078125
404638.372632	3.266818	39.062500	-230.078125
404638.374631	3.267104	39.062500	-230.078125
404638.376633	3.266715	39.062500	-230.078125
404638.378631	3.266704	35.933746	0.475046
404639.550706	3.264639	217.675781	-15.039062
404639.552708	3.267010	217.675781	-15.039062
404639.554708	3.266970	217.675781	-15.039062
404639.556707	3.266674	35.933411	0.296410
404640.470739	3.267205	36.816406	-228.808594
404640.472739	3.266840	36.816406	-228.808594
404640.474741	3.266662	35.933277	0.416393
404641.618796	3.267185	216.406250	-13.867187
404641.620794	3.266858	216.406250	-13.867187
404641.622796	3.266825	35.935078	0.344911
404642.566862	3.266987	41.894531	-222.167969
404642.568862	3.267203	41.894531	-222.167969
404642.570864	3.266892	41.894531	-222.167969
404642.572864	3.266838	35.935219	0.533770
404643.713822	3.267324	215.136719	-15.234375
404643.715826	3.267420	215.136719	-15.234375
404643.717824	3.267202	215.136719	-15.234375
404643.719824	3.267102	35.938126	0.307572
404644.663869	3.267074	42.968750	-220.703125
404644.665871	3.267402	42.968750	-220.703125
404644.667873	3.267109	42.968750	-220.703125
404644.669872	3.267028	35.937309	0.363816
404645.776820	3.265181	219.726562	-13.574219
404645.778821	3.266951	219.726562	-13.574219
404645.780821	3.266867	219.726562	-13.574219
404645.782821	3.266608	35.932693	0.364470
404646.726888	3.265414	50.683594	-221.093750
404646.728890	3.267564	50.683594	-221.093750
404646.730889	3.267508	50.683594	-221.093750
404646.732891	3.267219	35.939411	0.441796
404647.874945	3.266656	219.824219	-14.160156
404647.876946	3.267168	219.824219	-14.160156
404647.878947	3.267114	219.824219	-14.160156
404647.880945	3.266723	35.933952	0.314576
404648.825502	3.267322	48.437500	-226.562500
404648.827503	3.267661	48.437500	-226.562500
404648.829504	3.267336	48.437500	-226.562500
404648.831502	3.267222	35.939445	0.513120
404649.970448	2.129495	218.066406	-16.992187
404649.972450	3.266985	218.066406	-16.992187
404649.974448	3.267188	218.066406	-16.992187
404649.976451	3.266906	218.066406	-16.992187
404649.978451	3.266831	35.935139	0.299122
404650.924492	3.267205	36.328125	-243.652344
404650.926494	3.266948	36.328125	-243.652344
404650.928495	3.266807	35.934872	0.369967
404652.036560	3.266780	223.144531	-14.843750
404652.038560	3.267426	223.144531	-14.843750
404652.040563	3.267090	223.144531	-14.843750
404652.044560	3.267021	35.937229	0.360403
404652.987143	3.267155	53.808594	-218.359375
404652.989145	3.267405	53.808594	-218.359375
404652.991145	3.267081	53.808594	-218.359375
404652.993145	3.267036	35.937397	0.612418
404654.132118	3.264351	218.847656	-15.722656
404654.138115	3.267147	218.847656	-15.722656
404654.140117	3.266863	218.847656	-15.722656
404654.142117	3.266865	35.935509	0.310989
404655.082153	3.263473	42.187500	-226.269531
404655.084156	3.267145	42.187500	-226.269531
404655.086154	3.267465	42.187500	-226.269531
404655.088156	3.267068	42.187500	-226.269531
404655.090154	3.267042	35.937462	0.401326
404656.198179	3.266628	219.921875	-14.453125
404656.200182	3.267127	219.921875	-14.453125
404656.202180	3.266751	219.921875	-14.453125
404656.204181	3.266608	35.932682	0.396758
404657.180219	3.265678	37.011719	-225.585937
404657.184219	3.267207	37.011719	-225.585937
404657.188218	3.267073	37.011719	-225.585937
404657.190219	3.267039	35.937424	0.328025
404658.294267	3.265610	218.066406	-14.746094
404658.296266	3.267158	218.066406	-14.746094
404658.298267	3.267167	218.066406	-14.746094
404658.300269	3.266853	35.935379	0.363121
404659.244307	3.265068	42.285156	-208.789062
404659.246310	3.267488	42.285156	-208.789062
404659.248309	3.267226	42.285156	-208.789062
404659.250309	3.267063	35.937691	0.443260
404660.392338	3.266442	217.187500	-15.234375
404660.394340	3.267061	217.187500	-15.234375
404660.396339	3.266800	217.187500	-15.234375
404660.398339	3.266658	35.933243	0.290702
