time (s)	coil I (A)	last det (V)	int current (uC)
407150.825600	3.266201	56.250000	-351.757812
407150.827600	3.267429	56.250000	-351.757812
407150.829600	3.266820	56.250000	-351.757812
407150.831602	3.266760	35.934357	0.233996
407151.841646	3.266571	139.160156	36.132812
407151.843645	3.267214	139.160156	36.132812
407151.845648	3.266757	139.160156	36.132812
407151.847645	3.266665	35.933311	0.226107
407152.923674	3.266924	44.335937	-364.257812
407152.925673	3.266997	44.335937	-364.257812
407152.927677	3.266626	35.932888	0.215112
407153.972583	3.267147	142.675781	27.929687
407153.974586	3.266930	142.675781	27.929687
407153.978584	3.266711	35.933819	0.164558
407154.986639	3.265877	36.914062	-371.289062
407154.988642	3.266021	36.914062	-371.289062
407154.990642	3.267087	36.914062	-371.289062
407154.992642	3.266980	35.936779	0.257131
407156.034703	3.265202	147.363281	25.585937
407156.036703	3.267547	147.363281	25.585937
407156.038703	3.267525	147.363281	25.585937
407156.040703	3.267302	35.940323	0.227674
407157.050740	3.265078	44.140625	-355.468750
407157.052742	3.267072	44.140625	-355.468750
407157.054742	3.266957	44.140625	-355.468750
407157.056742	3.266721	35.933933	0.309204
407158.133706	3.267161	152.050781	21.386719
407158.135707	3.267326	152.050781	21.386719
407158.137705	3.267026	152.050781	21.386719
407158.139704	3.266995	35.936947	0.179641
407159.148299	3.266461	32.226562	-373.828125
407159.152305	3.267397	32.226562	-373.828125
407159.154306	3.267248	32.226562	-373.828125
407159.156305	3.267254	35.939793	0.236938
407160.230351	3.266896	155.468750	14.550781
407160.232351	3.267373	155.468750	14.550781
407160.234352	3.267035	155.468750	14.550781
407160.236352	3.266913	35.936043	0.202613
407161.246407	3.266911	30.761719	-376.074219
407161.248409	3.267171	30.761719	-376.074219
407161.250410	3.266753	30.761719	-376.074219
407161.252410	3.266720	35.933914	0.389228
407162.294425	3.266820	157.812500	15.429687
407162.296429	3.267769	157.812500	15.429687
407162.298428	3.267423	157.812500	15.429687
407162.300428	3.267394	35.941334	0.246482
407163.342447	3.265563	26.074219	-381.347656
407163.344450	3.267358	26.074219	-381.347656
407163.346449	3.267150	26.074219	-381.347656
407163.348450	3.266918	35.936096	0.193695
407164.392515	3.267021	159.570312	14.062500
407164.394520	3.267074	159.570312	14.062500
407164.396521	3.267060	35.937656	0.210220
407165.406570	3.265500	31.640625	-370.996094
407165.408572	3.267601	31.640625	-370.996094
407165.410572	3.267472	31.640625	-370.996094
407165.412572	3.267203	35.939236	0.236084
407166.490601	3.267318	159.570312	11.035156
407166.492603	3.267077	159.570312	11.035156
407166.494602	3.266899	35.935894	0.197415
407167.503562	3.264779	28.515625	-377.050781
407167.505562	3.267020	28.515625	-377.050781
407167.507563	3.266934	28.515625	-377.050781
407167.509563	3.266724	35.933960	0.227276
407168.553586	3.267251	160.156250	12.500000
407168.555586	3.267612	160.156250	12.500000
407168.557587	3.267292	160.156250	12.500000
407168.559587	3.267237	35.939606	0.328780
407169.569620	3.267118	37.695312	-361.035156
407169.571622	3.267291	37.695312	-361.035156
407169.573622	3.266919	37.695312	-361.035156
407169.575623	3.266864	35.935501	0.258794
407170.650216	3.266474	159.863281	12.890625
407170.652218	3.267266	159.863281	12.890625
407170.654219	3.267011	159.863281	12.890625
407170.656218	3.267029	35.937321	0.218149
407171.666202	3.266376	30.664062	-375.585937
407171.668202	3.267103	30.664062	-375.585937
407171.670205	3.266711	30.664062	-375.585937
407171.672204	3.266658	35.933243	0.246934
407172.750261	3.267461	159.570312	11.816406
407172.752264	3.267114	159.570312	11.816406
407172.754262	3.267012	35.937134	0.190557
407173.762833	3.266091	27.441406	-382.519531
407173.764835	3.267266	27.441406	-382.519531
407173.766833	3.266974	27.441406	-382.519531
407173.768835	3.266712	35.933838	0.220745
407174.811398	3.265889	158.398437	14.550781
407174.813412	3.267223	158.398437	14.550781
407174.815420	3.266943	158.398437	14.550781
407174.817418	3.266732	35.934055	0.233703
407175.827921	3.267140	33.300781	-376.953125
407175.829924	3.267280	33.300781	-376.953125
407175.831923	3.267016	33.300781	-376.953125
407175.833924	3.266915	35.936062	0.262304
407176.907977	3.264466	155.371094	15.917969
407176.909978	3.266989	155.371094	15.917969
407176.911977	3.267023	155.371094	15.917969
407176.913976	3.266670	35.933369	0.208831
407177.924060	3.265750	35.156250	-375.585937
407177.926061	3.267523	35.156250	-375.585937
407177.928061	3.267342	35.156250	-375.585937
407177.930060	3.267015	35.937168	0.247043
407179.004974	3.264516	151.074219	18.066406
407179.006976	3.267102	151.074219	18.066406
407179.008978	3.267163	151.074219	18.066406
407179.010976	3.266906	35.935963	0.171990
407180.021001	3.264763	30.273437	-386.425781
407180.023001	3.267113	30.273437	-386.425781
407180.025003	3.266949	30.273437	-386.425781
407180.027004	3.266807	35.934879	0.224428
407181.071042	3.266838	147.558594	21.972656
407181.073045	3.267167	147.558594	21.972656
407181.075051	3.266854	147.558594	21.972656
407181.077048	3.266778	35.934551	0.363711
407182.119060	3.266347	35.351562	-383.007812
407182.121062	3.267384	35.351562	-383.007812
407182.123064	3.266971	35.351562	-383.007812
407182.125062	3.266927	35.936195	0.231440
407183.167143	3.265764	143.164062	23.339844
407183.169147	3.267114	143.164062	23.339844
407183.171144	3.266853	143.164062	23.339844
407183.173145	3.266679	35.933464	0.164767
407184.215182	3.264755	48.242187	-367.480469
407184.217184	3.267115	48.242187	-367.480469
407184.219185	3.267213	48.242187	-367.480469
407184.221184	3.266853	35.935387	0.223421
407185.231230	3.265084	141.210937	24.707031
407185.233232	3.267066	141.210937	24.707031
407185.235232	3.266989	141.210937	24.707031
407185.237232	3.266714	35.933853	0.219602
407186.279278	3.264004	58.984375	-354.101562
407186.283278	3.267142	58.984375	-354.101562
407186.285281	3.266911	58.984375	-354.101562
407186.287283	3.266834	35.935173	0.255710
407187.299345	3.266929	144.531250	27.929687
407187.301348	3.266699	144.531250	27.929687
407187.303348	3.266671	35.933384	0.236235
407188.376311	3.263239	60.644531	-352.050781
407188.378312	3.266915	60.644531	-352.050781
407188.380311	3.267235	60.644531	-352.050781
407188.382312	3.266879	60.644531	-352.050781
407188.384311	3.266779	35.934570	0.244499
407189.392337	3.263859	145.605469	21.386719
407189.394348	3.267018	145.605469	21.386719
407189.396350	3.267160	145.605469	21.386719
407189.398348	3.266911	145.605469	21.386719
407189.400348	3.266805	35.934853	0.235874
407190.474370	3.265877	54.980469	-358.496094
407190.476371	3.267266	54.980469	-358.496094
407190.478372	3.267047	54.980469	-358.496094
407190.480371	3.266844	35.935280	0.207968
407191.458416	3.266869	151.269531	22.460937
407191.460419	3.267350	151.269531	22.460937
407191.462419	3.266930	151.269531	22.460937
407191.464420	3.266832	35.935158	0.382591
407192.572451	3.267073	47.363281	-367.871094
407192.574453	3.267107	47.363281	-367.871094
407192.576450	3.267248	47.363281	-367.871094
407192.578451	3.267064	35.937698	0.234158
407193.554516	3.265743	154.003906	17.871094
407193.556518	3.267295	154.003906	17.871094
407193.558516	3.267087	154.003906	17.871094
407193.560517	3.266917	35.936089	0.260380
407194.640578	3.267235	54.101562	-351.171875
407194.642581	3.267112	54.101562	-351.171875
407194.646579	3.267003	35.937035	0.220776
407195.652605	3.266812	155.078125	14.355469
407195.654606	3.267520	155.078125	14.355469
407195.656607	3.267131	155.078125	14.355469
407195.658607	3.267020	35.937222	0.251983
407196.732684	3.265642	45.800781	-365.429687
407196.734686	3.267688	45.800781	-365.429687
407196.736685	3.267555	45.800781	-365.429687
407196.740685	3.267230	35.939526	0.175095
407197.748720	3.265133	155.566406	13.671875
407197.750724	3.267191	155.566406	13.671875
407197.752724	3.266998	155.566406	13.671875
407197.754723	3.266820	35.935024	0.215566
407198.797281	3.265361	53.808594	-350.976562
407198.799282	3.267116	53.808594	-350.976562
407198.801281	3.266943	53.808594	-350.976562
407198.803283	3.266719	35.933907	0.244820
407199.813400	3.266133	158.007812	17.578125
407199.815401	3.267454	158.007812	17.578125
407199.817401	3.267104	158.007812	17.578125
407199.819401	3.267033	35.937363	0.282335
407200.896389	3.267132	52.734375	-355.957031
407200.898391	3.266969	52.734375	-355.957031
407200.900392	3.266729	35.934021	0.202497
407201.909323	3.262679	153.515625	15.332031
407201.911325	3.266686	153.515625	15.332031
407201.913325	3.267100	153.515625	15.332031
407201.915325	3.266715	153.515625	15.332031
407201.919323	3.266638	35.933022	0.230418
407202.991418	3.265315	52.539062	-362.695312
407202.993420	3.267446	52.539062	-362.695312
407202.995419	3.267446	52.539062	-362.695312
407202.997420	3.267000	35.937000	0.205781
407203.977468	3.267371	153.710937	22.558594
407203.981469	3.266819	153.710937	22.558594
407203.983471	3.266797	35.934769	0.266358
407205.089497	3.266614	52.832031	-367.480469
407205.091498	3.267383	52.832031	-367.480469
407205.093498	3.267062	52.832031	-367.480469
407205.095498	3.266958	35.936539	0.182570
407206.072028	3.265621	148.046875	20.703125
407206.074031	3.267105	148.046875	20.703125
407206.076030	3.266845	148.046875	20.703125
407206.078030	3.266845	35.935291	0.235364
407207.154061	3.267023	56.152344	-364.453125
407207.156062	3.267859	56.152344	-364.453125
407207.158064	3.267355	56.152344	-364.453125
407207.160064	3.267299	35.940289	0.231859
407208.168093	3.263146	145.117187	20.507812
407208.170096	3.267072	145.117187	20.507812
407208.172094	3.267478	145.117187	20.507812
407208.174094	3.267074	145.117187	20.507812
407208.176093	3.266965	35.936619	0.213417
407209.250217	3.265358	46.679687	-375.878906
407209.252218	3.267179	46.679687	-375.878906
407209.254217	3.266923	46.679687	-375.878906
407209.256216	3.266717	35.933887	0.215837
407210.268267	3.267356	145.507812	19.531250
407210.270269	3.267062	145.507812	19.531250
407210.272269	3.266854	35.935394	0.203579
407211.314305	3.264569	43.945312	-374.121094
407211.316306	3.267045	43.945312	-374.121094
407211.320304	3.266830	43.945312	-374.121094
407211.322306	3.266749	35.934242	0.239530
407212.366908	3.267180	149.218750	19.921875
407212.368908	3.267140	149.218750	19.921875
407212.370910	3.266819	35.935005	0.183558
407213.379863	3.266645	37.695312	-380.078125
407213.381864	3.267502	37.695312	-380.078125
407213.383864	3.267106	37.695312	-380.078125
407213.385863	3.266990	35.936893	0.288454
407214.459880	3.264501	153.417969	15.527344
407214.461900	3.267097	153.417969	15.527344
407214.463906	3.267091	153.417969	15.527344
407214.467901	3.266793	153.417969	15.527344
407214.469904	3.267023	35.937248	0.167329
407215.475937	3.265057	26.855469	-397.167969
407215.477938	3.267397	26.855469	-397.167969
407215.479938	3.267349	26.855469	-397.167969
407215.483935	3.267023	35.937248	0.235190
407216.523990	3.263385	159.667969	15.820312
407216.525992	3.266807	159.667969	15.820312
407216.527993	3.267268	159.667969	15.820312
407216.533990	3.266829	159.667969	15.820312
407216.535993	3.266812	35.934937	0.244151
407217.540917	3.266190	29.785156	-390.625000
407217.542917	3.267367	29.785156	-390.625000
407217.544916	3.267110	29.785156	-390.625000
407217.546916	3.267017	35.937187	0.293055
407218.621024	3.263143	162.207031	10.253906
407218.623024	3.267076	162.207031	10.253906
407218.625027	3.267663	162.207031	10.253906
407218.627026	3.267276	162.207031	10.253906
407218.629026	3.267219	35.939411	0.195670
407219.639080	3.266980	23.242187	-402.636719
407219.641082	3.267197	23.242187	-402.636719
407219.643082	3.266937	23.242187	-402.636719
407219.645082	3.266906	35.935970	0.443368
407220.719104	3.265503	164.746094	6.835937
407220.723103	3.267052	164.746094	6.835937
407220.727104	3.266932	164.746094	6.835937
407220.729106	3.266944	35.936390	0.213076
407221.735146	3.265814	24.511719	-403.710937
407221.737146	3.267176	24.511719	-403.710937
407221.739147	3.266864	24.511719	-403.710937
407221.741147	3.266857	35.935425	0.225638
407222.785221	3.267332	166.210937	6.542969
407222.787221	3.267299	166.210937	6.542969
407222.789221	3.267065	35.937717	0.745295
407223.799240	3.265754	30.761719	-387.695312
407223.803239	3.267101	30.761719	-387.695312
407223.805242	3.266894	30.761719	-387.695312
407223.807240	3.266865	35.935520	0.268807
407224.881266	3.266665	166.894531	5.957031
407224.883267	3.267676	166.894531	5.957031
407224.885268	3.267470	166.894531	5.957031
407224.887268	3.267076	35.937832	0.195789
407225.899311	3.267137	22.949219	-403.222656
407225.901312	3.266697	22.949219	-403.222656
407225.903312	3.266640	35.933041	0.221185
407226.979343	3.266925	167.187500	4.785156
407226.981346	3.267010	167.187500	4.785156
407226.983345	3.266741	35.934155	0.199184
407227.995932	3.267442	24.414062	-401.953125
407227.997933	3.266972	24.414062	-401.953125
407227.999934	3.266812	35.934937	0.224328
407229.042506	3.266051	166.406250	6.640625
407229.044507	3.267309	166.406250	6.640625
407229.048510	3.266845	166.406250	6.640625
407229.050512	3.266721	35.933926	0.222829
407230.058565	3.266395	28.125000	-394.531250
407230.060565	3.267248	28.125000	-394.531250
407230.062565	3.266889	28.125000	-394.531250
407230.064566	3.266726	35.933987	0.250621
407231.138606	3.263660	165.332031	6.640625
407231.140609	3.263880	165.332031	6.640625
407231.142609	3.267233	165.332031	6.640625
407231.144610	3.266934	165.332031	6.640625
407231.148606	3.266881	35.935688	0.198978
407232.156676	3.267468	28.613281	-394.140625
407232.158678	3.267446	28.613281	-394.140625
407232.160678	3.267281	35.940090	0.236438
407233.238700	3.267214	162.792969	8.203125
407233.240702	3.266943	162.792969	8.203125
407233.242702	3.266734	35.934074	0.184987
407234.251644	3.264217	21.191406	-409.765625
407234.253647	3.267110	21.191406	-409.765625
407234.255646	3.267417	21.191406	-409.765625
407234.257647	3.267399	21.191406	-409.765625
407234.259646	3.266951	35.936459	0.226656
407235.301727	3.266924	160.644531	12.695312
407235.303731	3.267488	160.644531	12.695312
407235.305730	3.267217	160.644531	12.695312
407235.307732	3.267113	35.938240	0.204438
407236.318304	3.267354	36.523437	-381.933594
407236.320306	3.267412	36.523437	-381.933594
407236.322307	3.267012	35.937134	0.268946
407237.398871	3.266692	155.957031	14.062500
407237.400872	3.267221	155.957031	14.062500
407237.402872	3.266909	155.957031	14.062500
407237.404871	3.266807	35.934879	0.182907
407238.413806	3.265367	39.648437	-381.933594
407238.415808	3.267039	39.648437	-381.933594
407238.417809	3.266900	39.648437	-381.933594
407238.419807	3.266667	35.933338	0.275372
407239.461861	3.264179	152.441406	15.917969
407239.463880	3.266920	152.441406	15.917969
407239.465883	3.266971	152.441406	15.917969
407239.467884	3.266711	152.441406	15.917969
407239.469884	3.266708	35.933792	0.219088
407240.513931	3.267669	42.382812	-381.542969
407240.515934	3.267176	42.382812	-381.542969
407240.517934	3.267106	35.938160	0.241000
407241.528048	3.266874	152.246094	19.531250
407241.530052	3.267198	152.246094	19.531250
407241.532052	3.267145	152.246094	19.531250
407241.534051	3.266786	35.934643	0.426165
407242.608634	3.266048	51.367187	-371.582031
407242.610636	3.267180	51.367187	-371.582031
407242.612635	3.266936	51.367187	-371.582031
407242.614637	3.266710	35.933811	0.236710
407243.623173	3.263631	151.269531	15.625000
407243.625173	3.267046	151.269531	15.625000
407243.627175	3.267158	151.269531	15.625000
407243.629175	3.267401	151.269531	15.625000
407243.631175	3.267054	35.937595	0.227965
407244.705231	3.265787	51.953125	-373.828125
407244.707234	3.267717	51.953125	-373.828125
407244.709234	3.267442	51.953125	-373.828125
407244.711235	3.267258	35.939835	0.201565
407245.689316	3.266941	154.980469	16.308594
407245.691319	3.267378	154.980469	16.308594
407245.693318	3.266986	154.980469	16.308594
407245.695319	3.266915	35.936062	0.251603
407246.803373	3.266575	47.949219	-379.492187
407246.805376	3.267248	47.949219	-379.492187
407246.807377	3.266935	47.949219	-379.492187
407246.809376	3.266749	35.934242	0.197128
407247.785411	3.265271	158.984375	14.746094
407247.787411	3.267269	158.984375	14.746094
407247.789412	3.267089	158.984375	14.746094
407247.791412	3.266781	35.934589	0.244060
407248.867506	3.266527	52.734375	-369.921875
407248.869508	3.267545	52.734375	-369.921875
407248.873506	3.267148	52.734375	-369.921875
407248.875508	3.267091	35.938000	0.223361
407249.885533	3.267472	159.863281	10.546875
407249.887535	3.267105	159.863281	10.546875
407249.889534	3.267006	35.937069	0.221105
407250.966092	3.267254	47.558594	-375.488281
407250.968094	3.267082	47.558594	-375.488281
407250.970095	3.266798	35.934776	0.183207
407251.947076	3.265784	163.964844	10.546875
407251.949076	3.267475	163.964844	10.546875
407251.953077	3.267166	163.964844	10.546875
407251.955077	3.267064	35.937706	0.274724
407253.029093	3.266658	48.339844	-374.023437
407253.031093	3.267337	48.339844	-374.023437
407253.033094	3.266994	48.339844	-374.023437
407253.035094	3.266904	35.935944	0.240385
407254.045143	3.267197	162.207031	8.984375
407254.047145	3.267627	162.207031	8.984375
407254.049145	3.267306	162.207031	8.984375
407254.051146	3.267088	35.937965	0.258387
407255.125205	3.265325	48.144531	-375.000000
407255.127207	3.267384	48.144531	-375.000000
407255.129207	3.267339	48.144531	-375.000000
407255.131210	3.267079	35.937866	0.203892
407256.141223	3.264922	160.253906	8.691406
407256.143230	3.267051	160.253906	8.691406
407256.145235	3.266918	160.253906	8.691406
407256.147236	3.266753	35.934288	0.210630
407257.223290	3.266998	46.093750	-381.054687
407257.225293	3.267612	46.093750	-381.054687
407257.227291	3.267325	46.093750	-381.054687
407257.229292	3.267184	35.939030	0.199488
407258.205386	3.264477	160.351562	12.011719
407258.207388	3.266942	160.351562	12.011719
407258.209388	3.266931	160.351562	12.011719
407258.211388	3.266658	35.933235	0.257931
407259.287446	3.266214	53.320312	-369.531250
407259.289446	3.267271	53.320312	-369.531250
407259.291446	3.267076	53.320312	-369.531250
407259.293445	3.266999	35.936993	0.248957
407260.305500	3.267468	159.375000	13.964844
407260.307502	3.267164	159.375000	13.964844
407260.309502	3.267044	35.937489	0.238269
407261.383529	3.264129	47.558594	-381.738281
407261.385538	3.267085	47.558594	-381.738281
407261.387541	3.267204	47.558594	-381.738281
407261.389540	3.267007	47.558594	-381.738281
407261.391541	3.266932	35.936249	0.210473
407262.401644	3.267358	155.957031	13.183594
407262.403646	3.267367	155.957031	13.183594
407262.405647	3.267056	35.937611	0.661962
407263.480613	3.263390	44.042969	-385.546875
407263.482616	3.266783	44.042969	-385.546875
407263.484617	3.267146	44.042969	-385.546875
407263.486618	3.266815	44.042969	-385.546875
407263.488614	3.266756	35.934315	0.196238
407264.496631	3.263972	154.296875	11.914062
407264.500643	3.266998	154.296875	11.914062
407264.502645	3.266744	154.296875	11.914062
407264.504644	3.266693	35.933624	0.185765
407265.546674	3.266749	44.824219	-379.589844
407265.548675	3.267280	44.824219	-379.589844
407265.550677	3.266917	44.824219	-379.589844
407265.552675	3.266815	35.934971	0.237562
407266.561615	3.265763	157.812500	14.550781
407266.563618	3.267123	157.812500	14.550781
407266.565618	3.266960	157.812500	14.550781
407266.567618	3.266856	35.935413	0.241224
407267.609657	3.264414	44.238281	-377.343750
407267.611659	3.266981	44.238281	-377.343750
407267.613658	3.267001	44.238281	-377.343750
407267.615659	3.266648	35.933125	0.282223
407268.659691	3.266822	160.351562	11.132812
407268.661693	3.267442	160.351562	11.132812
407268.663692	3.267102	160.351562	11.132812
407268.665693	3.267265	35.939915	0.226345
407269.709765	3.266501	30.078125	-399.121094
407269.711767	3.266772	30.078125	-399.121094
407269.713768	3.266683	35.933517	0.230378
407270.758325	3.267467	163.964844	7.519531
407270.760325	3.267127	163.964844	7.519531
407270.762325	3.266953	35.936485	0.198009
407271.772358	3.266762	32.128906	-395.996094
407271.774361	3.267462	32.128906	-395.996094
407271.776360	3.267171	32.128906	-395.996094
407271.778361	3.267098	35.938080	0.277953
407272.852445	3.263967	167.871094	4.687500
407272.854447	3.267028	167.871094	4.687500
407272.856447	3.267102	167.871094	4.687500
407272.858445	3.266838	167.871094	4.687500
407272.860448	3.266819	35.935005	0.189605
407273.868479	3.265018	22.070312	-417.089844
407273.870479	3.267297	22.070312	-417.089844
407273.872481	3.267311	22.070312	-417.089844
407273.874479	3.266953	35.936485	0.237980
407274.950497	3.266111	171.484375	2.929687
407274.952501	3.267201	171.484375	2.929687
407274.954498	3.266907	171.484375	2.929687
407274.956498	3.266716	35.933872	0.182237
407275.966516	3.266786	19.140625	-423.632812
407275.968516	3.267624	19.140625	-423.632812
407275.972515	3.267153	19.140625	-423.632812
407275.974515	3.267166	35.938824	0.204513
407277.014507	3.266093	173.535156	1.757812
407277.016509	3.267525	173.535156	1.757812
407277.018508	3.267302	173.535156	1.757812
407277.020509	3.267131	35.938446	0.239530
407278.030575	3.265899	25.488281	-412.890625
407278.032576	3.267423	25.488281	-412.890625
407278.034578	3.266994	25.488281	-412.890625
407278.036576	3.267007	35.937080	0.260640
407279.112595	3.266845	173.535156	-0.390625
407279.114597	3.267342	173.535156	-0.390625
407279.116597	3.267101	173.535156	-0.390625
407279.118597	3.267025	35.937275	0.188882
407280.128650	3.266911	22.851562	-416.894531
407280.130652	3.267167	22.851562	-416.894531
407280.132652	3.266876	22.851562	-416.894531
407280.134653	3.266877	35.935642	0.329319
407281.209223	3.266075	174.218750	-2.050781
407281.211225	3.267266	174.218750	-2.050781
407281.213226	3.266936	174.218750	-2.050781
407281.215226	3.266787	35.934654	0.187184
407282.193252	3.266906	31.347656	-402.343750
407282.195256	3.267176	31.347656	-402.343750
407282.197253	3.266728	31.347656	-402.343750
407282.199254	3.266662	35.933285	0.529218
407283.276213	3.267152	174.511719	1.464844
407283.278212	3.266831	174.511719	1.464844
407283.282211	3.266728	35.934013	0.215625
407284.288798	3.265443	24.902344	-414.941406
407284.290802	3.267601	24.902344	-414.941406
407284.292801	3.267467	24.902344	-414.941406
407284.294801	3.267300	35.940296	0.250918
407285.370845	3.266364	172.753906	0.878906
407285.372847	3.267471	172.753906	0.878906
407285.374849	3.267188	172.753906	0.878906
407285.376848	3.267150	35.938648	0.189017
407286.386932	3.266773	20.800781	-422.656250
407286.388932	3.267517	20.800781	-422.656250
407286.390932	3.267158	20.800781	-422.656250
407286.392935	3.267037	35.937408	0.219186
407287.469033	3.266883	169.628906	2.148437
407287.471029	3.266917	169.628906	2.148437
407287.473029	3.266692	35.933613	0.546052
407288.450002	3.264222	30.566406	-401.953125
407288.452005	3.264723	30.566406	-401.953125
407288.454013	3.267173	30.566406	-401.953125
407288.456012	3.266865	30.566406	-401.953125
407288.458012	3.266729	35.934021	0.280300
407289.532062	3.265862	170.703125	5.175781
407289.536061	3.267303	170.703125	5.175781
407289.538064	3.267038	170.703125	5.175781
407289.540062	3.267046	35.937508	0.179946
407290.548106	3.266154	29.589844	-405.371094
407290.550109	3.267254	29.589844	-405.371094
407290.552109	3.266940	29.589844	-405.371094
407290.554109	3.266866	35.935528	0.244788
407291.629118	3.265281	168.066406	5.859375
407291.631119	3.267096	168.066406	5.859375
407291.635119	3.266646	168.066406	5.859375
407291.637120	3.266684	35.933525	0.181859
407292.645125	3.266242	33.886719	-396.289062
407292.647124	3.267740	33.886719	-396.289062
407292.649124	3.267437	33.886719	-396.289062
407292.651125	3.267287	35.940163	0.237193
407293.693211	3.265039	161.425781	8.398437
407293.695211	3.267152	161.425781	8.398437
407293.697213	3.267005	161.425781	8.398437
407293.699212	3.266874	35.935608	0.206242
407294.743295	3.267047	40.917969	-387.890625
407294.747296	3.266866	40.917969	-387.890625
407294.749297	3.266962	40.917969	-387.890625
407294.751297	3.266910	35.936008	0.219016
407295.757859	3.265421	161.328125	10.644531
407295.759859	3.267081	161.328125	10.644531
407295.761860	3.266852	161.328125	10.644531
407295.763859	3.266734	35.934074	0.234336
407296.839967	3.266629	42.382812	-390.136719
407296.841967	3.267251	42.382812	-390.136719
407296.843967	3.266973	42.382812	-390.136719
407296.845968	3.266975	35.936726	0.191030
407297.854916	3.265464	163.085937	9.960937
407297.856919	3.267312	163.085937	9.960937
407297.858919	3.267171	163.085937	9.960937
407297.860919	3.266957	35.936531	0.212755
407298.904925	3.267143	53.906250	-373.046875
407298.906928	3.267436	53.906250	-373.046875
407298.908928	3.267071	53.906250	-373.046875
407298.910928	3.267040	35.937443	0.257702
407299.919870	3.266214	164.843750	9.082031
407299.921872	3.267134	164.843750	9.082031
407299.923872	3.267153	164.843750	9.082031
407299.925872	3.266727	35.933998	0.252624
407301.001948	3.267116	45.117187	-385.742187
407301.003948	3.267319	45.117187	-385.742187
407301.005948	3.267027	45.117187	-385.742187
407301.007948	3.266927	35.936195	0.415956
407302.020022	3.267288	167.480469	7.128906
407302.022024	3.266915	167.480469	7.128906
407302.024023	3.266736	35.934093	0.239776
407303.098582	3.267133	44.824219	-386.230469
407303.100583	3.267777	44.824219	-386.230469
407303.102583	3.267421	44.824219	-386.230469
407303.104583	3.267372	35.941093	0.204823
407304.113128	3.264420	165.625000	3.222656
407304.115132	3.267053	165.625000	3.222656
407304.119136	3.266788	165.625000	3.222656
407304.121138	3.266778	165.625000	3.222656
407304.123138	3.266828	35.935104	0.207811
407305.163210	3.267050	48.730469	-375.097656
407305.165211	3.267528	48.730469	-375.097656
407305.167209	3.267201	48.730469	-375.097656
407305.169210	3.267157	35.938728	0.250352
407306.177762	3.264996	170.117187	4.394531
407306.179764	3.267321	170.117187	4.394531
407306.183762	3.267046	170.117187	4.394531
407306.185767	3.266986	35.936852	0.258435
407307.259773	3.265937	45.214844	-381.542969
407307.263772	3.267081	45.214844	-381.542969
407307.265775	3.266906	45.214844	-381.542969
407307.269772	3.266976	35.936733	0.218940
407308.278366	3.267214	168.066406	2.832031
407308.280368	3.266887	168.066406	2.832031
407308.282366	3.266860	35.935459	0.335056
407309.358415	3.267368	39.941406	-392.968750
407309.360415	3.267263	39.941406	-392.968750
407309.362416	3.267119	35.938313	0.805511
407310.372430	3.265855	166.406250	3.222656
407310.374431	3.267387	166.406250	3.222656
407310.376431	3.267181	166.406250	3.222656
407310.378431	3.267017	35.937187	0.203416
407311.420496	3.264379	47.167969	-379.882812
407311.422498	3.267166	47.167969	-379.882812
407311.424499	3.267227	47.167969	-379.882812
407311.426497	3.266822	35.935040	0.255819
407312.439058	3.267496	168.066406	6.933594
407312.441062	3.267184	168.066406	6.933594
407312.443063	3.267053	35.937584	0.245259
407313.519620	3.267300	46.289062	-380.273437
407313.521622	3.267325	46.289062	-380.273437
407313.523621	3.267052	35.937576	0.225639
407314.534138	3.265885	165.917969	7.519531
407314.536142	3.267283	165.917969	7.519531
407314.538141	3.266978	165.917969	7.519531
407314.540140	3.266801	35.934811	0.226374
407315.616729	3.267096	40.136719	-391.894531
407315.620730	3.266927	40.136719	-391.894531
407315.622730	3.266915	35.936069	0.198348
407316.630781	3.264970	163.476562	5.175781
407316.632783	3.267098	163.476562	5.175781
407316.634782	3.267077	163.476562	5.175781
407316.636783	3.267003	35.937035	0.207632
407317.679285	3.265084	42.382812	-385.253906
407317.681289	3.267553	42.382812	-385.253906
407317.683293	3.267300	42.382812	-385.253906
407317.685293	3.267014	35.937153	0.242022
407318.695379	3.265589	165.234375	8.984375
407318.697389	3.267417	165.234375	8.984375
407318.699395	3.267247	165.234375	8.984375
407318.701396	3.267025	35.937275	0.231558
407319.777978	3.267391	33.300781	-396.386719
407319.779980	3.267661	33.300781	-396.386719
407319.781982	3.267241	33.300781	-396.386719
407319.783980	3.267325	35.940571	0.351975
407320.794024	3.267017	168.359375	7.617187
407320.796017	3.267213	168.359375	7.617187
407320.798018	3.266871	168.359375	7.617187
407320.800018	3.266817	35.934990	0.549660
407321.842112	3.266589	31.542969	-396.679687
407321.846112	3.266822	31.542969	-396.679687
407321.848114	3.266736	31.542969	-396.679687
407321.850115	3.266778	35.934563	0.223909
407322.890641	3.266405	171.093750	3.710937
407322.892645	3.267238	171.093750	3.710937
407322.894645	3.267023	171.093750	3.710937
407322.896645	3.266819	35.935013	0.209370
407323.938654	3.266095	22.949219	-412.988281
407323.940655	3.267310	22.949219	-412.988281
407323.942655	3.266946	22.949219	-412.988281
407323.948654	3.266777	35.934544	0.206443
407324.987263	3.266016	174.023437	0.878906
407324.989263	3.267503	174.023437	0.878906
407324.991264	3.267146	174.023437	0.878906
407324.993265	3.266983	35.936813	0.198882
407326.003350	3.266807	22.558594	-416.796875
407326.005351	3.267603	22.558594	-416.796875
407326.007353	3.267205	22.558594	-416.796875
407326.009352	3.267030	35.937328	0.243478
407327.087392	3.267320	177.148437	-1.757812
407327.089394	3.266903	177.148437	-1.757812
407327.091395	3.266934	35.936272	0.433389
407328.099972	3.265724	18.261719	-426.953125
407328.101974	3.267109	18.261719	-426.953125
407328.103975	3.266926	18.261719	-426.953125
407328.107972	3.266763	35.934395	0.198669
407329.150070	3.267210	181.835937	-1.757812
407329.152070	3.267160	181.835937	-1.757812
407329.154070	3.267001	35.937008	0.236638
407330.166624	3.267190	25.585937	-414.648437
407330.168626	3.267255	25.585937	-414.648437
407330.170626	3.266946	35.936405	0.254994
407331.247187	3.267110	181.054687	-4.003906
407331.249190	3.267201	181.054687	-4.003906
407331.251189	3.266819	35.935013	0.203462
407332.263243	3.267190	21.679687	-423.632812
407332.265244	3.267027	21.679687	-423.632812
407332.267245	3.266744	35.934181	0.215307
407333.343802	3.266695	182.226562	-4.882812
407333.345804	3.267258	182.226562	-4.882812
407333.347804	3.266897	182.226562	-4.882812
407333.349804	3.266787	35.934662	0.191374
407334.358415	3.265496	16.210937	-435.839844
407334.360416	3.267292	16.210937	-435.839844
407334.362417	3.267219	16.210937	-435.839844
407334.364419	3.266839	35.935226	0.203148
407335.408445	2.204908	182.519531	-3.222656
407335.410445	3.267147	182.519531	-3.222656
407335.412448	3.266805	182.519531	-3.222656
407335.414447	3.266815	35.934963	0.457525
407336.422965	3.265678	22.265625	-416.406250
407336.424968	3.267374	22.265625	-416.406250
407336.426968	3.267403	22.265625	-416.406250
407336.428968	3.266957	35.936523	0.259958
407337.504991	3.266941	178.613281	-4.296875
407337.506994	3.267661	178.613281	-4.296875
407337.508993	3.267284	178.613281	-4.296875
407337.510995	3.267173	35.938908	0.177263
407338.523024	3.267208	22.460937	-413.964844
407338.525026	3.266845	22.460937	-413.964844
407338.527025	3.266759	35.934349	0.205937
407339.569599	3.266762	179.101562	-0.781250
407339.573599	3.266950	179.101562	-0.781250
407339.575600	3.266868	179.101562	-0.781250
407339.577600	3.266844	35.935280	0.243146
407340.619642	3.267457	20.214844	-414.160156
407340.621646	3.267122	20.214844	-414.160156
407340.623644	3.266953	35.936478	0.208394
407341.666218	3.266519	174.804687	-0.488281
407341.668220	3.267691	174.804687	-0.488281
407341.670220	3.267347	174.804687	-0.488281
407341.672220	3.267230	35.939526	0.203939
407342.682292	3.266698	29.296875	-394.531250
407342.684295	3.267570	29.296875	-394.531250
407342.686294	3.267089	29.296875	-394.531250
407342.688295	3.267031	35.937340	0.263841
407343.762378	3.264132	170.312500	0.292969
407343.764379	3.266830	170.312500	0.292969
407343.766381	3.267012	170.312500	0.292969
407343.770379	3.266694	170.312500	0.292969
407343.772381	3.266672	35.933395	0.162528
407344.782447	3.267308	34.863281	-383.984375
407344.784453	3.267035	34.863281	-383.984375
407344.786454	3.267045	35.937496	0.245405
407345.830491	3.267478	169.335937	3.320312
407345.832493	3.267130	169.335937	3.320312
407345.834493	3.267139	35.938534	0.320445
407346.875106	3.263327	36.230469	-383.105469
407346.877107	3.267219	36.230469	-383.105469
407346.879109	3.267517	36.230469	-383.105469
407346.881109	3.267121	36.230469	-383.105469
407346.883109	3.267089	35.937984	0.199642
407347.891667	3.265929	169.726562	4.785156
407347.893669	3.267751	169.726562	4.785156
407347.895669	3.267565	169.726562	4.785156
407347.897669	3.267359	35.940945	0.234142
407348.973753	3.266518	36.718750	-384.570312
407348.975753	3.267544	36.718750	-384.570312
407348.977753	3.267193	36.718750	-384.570312
407348.979753	3.267026	35.937283	0.189368
407349.988324	3.264796	166.992187	2.246094
407349.990342	3.267303	166.992187	2.246094
407349.992340	3.267363	166.992187	2.246094
407349.994341	3.267093	166.992187	2.246094
407349.996341	3.267145	35.938595	0.208846
407351.072409	3.267463	39.941406	-381.445312
407351.076408	3.267006	39.941406	-381.445312
407351.078409	3.266898	35.935875	0.181512
407352.052983	3.264740	170.800781	3.613281
407352.054983	3.267059	170.800781	3.613281
407352.056984	3.267010	170.800781	3.613281
407352.058983	3.266828	35.935112	0.243861
407353.135072	3.266180	47.558594	-371.093750
407353.137075	3.267215	47.558594	-371.093750
407353.139073	3.267000	47.558594	-371.093750
407353.141075	3.266848	35.935326	0.222575
407354.153091	3.267251	171.093750	0.195312
407354.155092	3.266880	171.093750	0.195312
407354.157091	3.266765	35.934410	0.227926
407355.235117	3.267154	39.355469	-386.230469
407355.237119	3.266818	39.355469	-386.230469
407355.239118	3.266803	35.934830	0.203226
407356.249213	3.267523	172.558594	-0.097656
407356.251214	3.267451	172.558594	-0.097656
407356.253213	3.267222	35.939445	0.194137
407357.331780	3.267420	38.085937	-388.085937
407357.333782	3.267031	38.085937	-388.085937
407357.335782	3.266948	35.936424	0.179667
407358.311795	3.265441	176.367187	0.781250
407358.313795	3.267437	176.367187	0.781250
407358.317793	3.267057	176.367187	0.781250
407358.319796	3.267056	35.937611	0.240240
407359.395901	3.267479	41.796875	-382.421875
407359.397909	3.267113	41.796875	-382.421875
407359.399907	3.267041	35.937450	0.221127
407360.409958	3.266593	174.609375	-0.878906
407360.411963	3.266624	174.609375	-0.878906
407360.413962	3.266830	174.609375	-0.878906
407360.415963	3.266851	35.935360	0.223711
407361.490050	3.264916	37.402344	-389.355469
407361.492050	3.267318	37.402344	-389.355469
407361.494052	3.267264	37.402344	-389.355469
407361.496052	3.267088	35.937965	0.190406
407362.506106	3.265299	173.339844	-0.292969
407362.508106	3.267258	173.339844	-0.292969
407362.510106	3.267007	173.339844	-0.292969
407362.512106	3.266987	35.936859	0.191912
407363.556656	3.266490	43.164062	-378.125000
407363.558658	3.267202	43.164062	-378.125000
407363.560658	3.266947	35.936417	0.240031
407364.572745	3.267308	175.683594	2.343750
407364.574747	3.267144	175.683594	2.343750
407364.576748	3.266948	35.936424	0.234754
407365.651724	3.265357	43.066406	-375.781250
407365.653726	3.267418	43.066406	-375.781250
407365.655727	3.267323	43.066406	-375.781250
407365.657726	3.267103	35.938133	0.218189
407366.667820	3.265421	171.777344	2.246094
407366.669822	3.267163	171.777344	2.246094
407366.671822	3.267033	171.777344	2.246094
407366.673822	3.266861	35.935474	0.209945
407367.750414	3.267099	38.281250	-379.296875
407367.752417	3.267284	38.281250	-379.296875
407367.754417	3.266980	38.281250	-379.296875
407367.756417	3.266981	35.936787	0.411555
407368.767407	3.267338	171.191406	0.878906
407368.769407	3.266932	171.191406	0.878906
407368.771410	3.266845	35.935291	0.196603
407369.813446	2.549763	37.792969	-376.562500
407369.815447	3.267664	37.792969	-376.562500
407369.817448	3.267483	37.792969	-376.562500
407369.819446	3.267261	35.939873	0.232538
407370.863507	3.266928	170.019531	-0.781250
407370.865508	3.267023	170.019531	-0.781250
407370.867507	3.266680	170.019531	-0.781250
407370.869509	3.266642	35.933067	0.164692
407371.913542	3.267615	30.761719	-386.035156
407371.915545	3.267329	30.761719	-386.035156
407371.917544	3.267205	35.939251	0.198115
407372.927575	3.267209	176.367187	1.367187
407372.929576	3.267558	176.367187	1.367187
407372.933575	3.267087	176.367187	1.367187
407372.935576	3.267186	35.939049	0.238237
407373.976161	3.266602	25.097656	-394.238281
407373.978163	3.267231	25.097656	-394.238281
407373.980163	3.266769	25.097656	-394.238281
407373.982164	3.266610	35.932713	0.229296
407375.024162	3.266317	179.394531	-1.171875
407375.026161	3.267359	179.394531	-1.171875
407375.028162	3.266957	179.394531	-1.171875
407375.030162	3.266800	35.934803	0.213637
407376.075146	3.267790	18.164062	-410.253906
407376.077146	3.267387	18.164062	-410.253906
407376.079146	3.267357	35.940926	0.177685
407377.123176	3.267724	180.859375	-4.296875
407377.127177	3.267318	180.859375	-4.296875
407377.129178	3.267114	35.938259	0.196308
407378.137222	3.266511	20.800781	-408.203125
407378.139224	3.267239	20.800781	-408.203125
407378.141221	3.266902	20.800781	-408.203125
407378.143222	3.266840	35.935238	0.240412
407379.217298	3.264101	182.031250	-7.324219
407379.219298	3.267118	182.031250	-7.324219
407379.221300	3.267328	182.031250	-7.324219
407379.223300	3.266977	182.031250	-7.324219
407379.225308	3.266995	35.936947	0.161996
407380.233305	3.265040	14.843750	-422.753906
407380.235309	3.267582	14.843750	-422.753906
407380.237307	3.267631	14.843750	-422.753906
407380.239306	3.267334	35.940678	0.194732
407381.281412	3.263208	186.621094	-7.031250
407381.283414	3.266941	186.621094	-7.031250
407381.285413	3.267342	186.621094	-7.031250
407381.287413	3.267143	186.621094	-7.031250
407381.289412	3.266987	35.936859	0.223873
407382.297445	3.263793	22.753906	-410.253906
407382.299447	3.266817	22.753906	-410.253906
407382.301448	3.267121	22.753906	-410.253906
407382.303449	3.266729	22.753906	-410.253906
407382.305447	3.266656	35.933216	0.248386
407383.379509	3.266065	186.621094	-8.984375
407383.381510	3.267471	186.621094	-8.984375
407383.383510	3.267303	186.621094	-8.984375
407383.385510	3.267079	35.937866	0.197049
407384.395577	3.266015	22.070312	-412.011719
407384.399575	3.267037	22.070312	-412.011719
407384.401578	3.266912	22.070312	-412.011719
407384.403579	3.266968	35.936646	0.210424
407385.477625	3.266562	185.839844	-9.082031
407385.479629	3.267163	185.839844	-9.082031
407385.481626	3.266782	185.839844	-9.082031
407385.483626	3.266707	35.933773	0.167952
407386.492228	3.265315	18.164062	-419.238281
407386.494229	3.267070	18.164062	-419.238281
407386.496231	3.267045	18.164062	-419.238281
407386.498231	3.266727	35.933998	0.190855
407387.542287	3.266915	187.109375	-8.203125
407387.544290	3.267195	187.109375	-8.203125
407387.548288	3.266691	187.109375	-8.203125
407387.550289	3.266827	35.935097	0.212723
407388.558343	3.266921	25.390625	-403.320312
407388.560344	3.266988	25.390625	-403.320312
407388.562346	3.266738	35.934120	0.250051
407389.637341	3.263732	185.644531	-7.226562
407389.639343	3.267210	185.644531	-7.226562
407389.641344	3.267583	185.644531	-7.226562
407389.643343	3.267592	185.644531	-7.226562
407389.645343	3.267133	35.938461	0.172442
407390.653910	3.265467	19.824219	-410.351562
407390.655913	3.267249	19.824219	-410.351562
407390.657916	3.267088	19.824219	-410.351562
407390.659918	3.266953	35.936485	0.209126
407391.704017	3.266977	185.937500	-4.296875
407391.706021	3.267207	185.937500	-4.296875
407391.708019	3.266915	185.937500	-4.296875
407391.710021	3.266860	35.935459	0.227214
407392.752086	3.266932	21.386719	-403.222656
407392.754088	3.267433	21.386719	-403.222656
407392.756088	3.267056	21.386719	-403.222656
407392.758089	3.267016	35.937180	0.197851
407393.799045	3.264034	180.957031	-4.980469
407393.801048	3.267390	180.957031	-4.980469
407393.803048	3.267490	180.957031	-4.980469
407393.805048	3.267149	180.957031	-4.980469
407393.807049	3.267068	35.937752	0.200090
407394.815105	3.264771	28.906250	-385.839844
407394.817109	3.267153	28.906250	-385.839844
407394.819108	3.267143	28.906250	-385.839844
407394.821107	3.267151	35.938656	0.262694
407395.865135	3.266911	180.468750	-1.171875
407395.867138	3.267294	180.468750	-1.171875
407395.869138	3.266975	180.468750	-1.171875
407395.871136	3.266845	35.935291	0.282810
407396.912107	3.264416	32.812500	-377.539062
407396.914136	3.267233	32.812500	-377.539062
407396.916143	3.267362	32.812500	-377.539062
407396.918144	3.266981	32.812500	-377.539062
407396.920143	3.266934	35.936272	0.234714
407397.962205	3.266484	177.050781	-1.464844
407397.964206	3.267060	177.050781	-1.464844
407397.966206	3.266649	177.050781	-1.464844
407397.968205	3.266589	35.932480	0.193384
407399.011161	3.266935	32.812500	-377.441406
407399.013164	3.267159	32.812500	-377.441406
407399.015162	3.266792	32.812500	-377.441406
407399.017163	3.266852	35.935368	0.211142
407400.025215	3.264670	177.832031	-0.195312
407400.027220	3.267258	177.832031	-0.195312
407400.029218	3.267259	177.832031	-0.195312
407400.031217	3.267068	35.937752	0.219460
407401.107795	3.266720	35.644531	-374.121094
407401.109796	3.267475	35.644531	-374.121094
407401.113795	3.266920	35.644531	-374.121094
407401.115796	3.266914	35.936054	0.196684
407402.123846	3.266791	176.757812	-1.855469
407402.125849	3.267310	176.757812	-1.855469
407402.127849	3.266916	176.757812	-1.855469
407402.129848	3.266749	35.934235	0.282471
407403.172844	3.267274	41.796875	-368.554687
407403.174844	3.267297	41.796875	-368.554687
407403.176843	3.266989	35.936886	0.248093
407404.186951	3.265236	179.003906	-1.367187
407404.188952	3.266992	179.003906	-1.367187
407404.190953	3.266916	179.003906	-1.367187
407404.192952	3.266632	35.932949	0.236861
407405.273041	3.267046	43.066406	-369.042969
407405.275042	3.266870	35.935566	0.217178
407406.284057	3.264805	178.906250	-3.906250
407406.286058	3.267047	178.906250	-3.906250
407406.288059	3.267140	178.906250	-3.906250
407406.290059	3.266756	35.934315	0.212330
407407.366125	3.266114	38.378906	-377.441406
407407.368127	3.267059	38.378906	-377.441406
407407.370127	3.266779	38.378906	-377.441406
407407.374125	3.266597	35.932568	0.196763
407408.382171	3.266957	181.347656	-4.492187
407408.384175	3.267594	181.347656	-4.492187
407408.386175	3.267272	181.347656	-4.492187
407408.388175	3.267093	35.938019	0.191674
407409.430175	3.265830	45.019531	-368.457031
407409.432177	3.267186	45.019531	-368.457031
407409.434178	3.266845	45.019531	-368.457031
407409.436177	3.266789	35.934677	0.239119
407410.447132	3.266927	183.691406	-3.320312
407410.449134	3.267167	183.691406	-3.320312
407410.451135	3.266953	183.691406	-3.320312
407410.453135	3.266879	35.935669	0.440839
407411.527717	3.266273	41.601562	-373.632812
407411.529717	3.267100	41.601562	-373.632812
407411.533716	3.266575	41.601562	-373.632812
407411.535719	3.266527	35.931801	0.209117
407412.542678	3.265003	180.175781	-4.882812
407412.544680	3.267251	180.175781	-4.882812
407412.546679	3.267143	180.175781	-4.882812
407412.548680	3.266990	35.936893	0.208850
407413.624767	3.266089	35.937500	-379.101562
407413.626767	3.267243	35.937500	-379.101562
407413.628767	3.266824	35.937500	-379.101562
407413.630768	3.266783	35.934616	0.186005
407414.640751	3.266125	179.980469	-4.199219
407414.642754	3.267110	179.980469	-4.199219
407414.644753	3.266764	179.980469	-4.199219
407414.646752	3.266659	35.933250	0.183332
407415.691765	3.267070	43.750000	-365.332031
407415.693765	3.266781	43.750000	-365.332031
407415.697765	3.266717	35.933887	0.257064
407416.704319	3.265192	179.492187	-2.832031
407416.706321	3.267226	179.492187	-2.832031
407416.708322	3.267065	179.492187	-2.832031
407416.710321	3.266898	35.935875	0.226359
407417.786417	3.266167	35.546875	-371.875000
407417.788419	3.267430	35.546875	-371.875000
407417.794417	3.266770	35.546875	-371.875000
407417.796420	3.266808	35.934891	0.213886
407418.804487	3.267028	179.785156	-2.929687
407418.806489	3.266651	179.785156	-2.929687
407418.808489	3.266529	35.931816	0.215163
407419.853068	3.267159	36.132812	-367.480469
407419.855071	3.266797	36.132812	-367.480469
407419.857069	3.266727	35.933998	0.235353
407420.901135	3.267513	178.515625	-4.199219
407420.905135	3.266996	178.515625	-4.199219
407420.907137	3.266926	35.936184	0.183115
407421.947206	3.265162	31.835937	-371.679687
407421.949209	3.267058	31.835937	-371.679687
407421.951207	3.266923	31.835937	-371.679687
407421.953208	3.266825	35.935078	0.221527
407422.995751	3.264988	180.175781	-4.882812
407422.997753	3.267064	180.175781	-4.882812
407422.999753	3.267032	180.175781	-4.882812
407423.003751	3.266750	35.934254	0.162992
407424.012304	3.266080	29.589844	-375.000000
407424.018303	3.266609	29.589844	-375.000000
407424.020305	3.266654	29.589844	-375.000000
407424.022304	3.266700	35.933704	0.251316
407425.060342	2.580541	187.011719	-4.687500
407425.062342	3.267005	187.011719	-4.687500
407425.064344	3.266874	187.011719	-4.687500
407425.066343	3.266605	35.932655	0.229677
407426.109268	3.266274	18.750000	-395.214844
407426.111279	3.267545	18.750000	-395.214844
407426.113286	3.267192	18.750000	-395.214844
407426.115288	3.267163	35.938789	0.195507
407427.157347	3.265098	188.476562	-7.519531
407427.159348	3.267091	188.476562	-7.519531
407427.161347	3.267002	188.476562	-7.519531
407427.165346	3.266724	35.933960	0.212316
407428.173841	3.266510	24.707031	-390.039062
407428.175844	3.267334	24.707031	-390.039062
407428.177848	3.266886	24.707031	-390.039062
407428.179849	3.266745	35.934200	0.259300
407429.257897	3.267031	189.453125	-10.351562
407429.259899	3.266753	189.453125	-10.351562
407429.261900	3.266599	35.932587	0.361218
407430.269960	3.264215	21.289062	-399.804687
407430.271965	3.266886	21.289062	-399.804687
407430.273963	3.267068	21.289062	-399.804687
407430.275963	3.266689	35.933578	0.208819
407431.352559	3.266422	190.820312	-12.011719
407431.354559	3.267221	190.820312	-12.011719
407431.356561	3.266771	190.820312	-12.011719
407431.358561	3.266726	35.933987	0.160744
407432.334601	3.265003	23.730469	-396.972656
407432.336602	3.267147	23.730469	-396.972656
407432.338601	3.267112	23.730469	-396.972656
407432.340601	3.266889	35.935776	0.252044
407433.416682	3.266215	194.140625	-12.109375
407433.418684	3.267411	194.140625	-12.109375
407433.420683	3.267031	194.140625	-12.109375
407433.422684	3.266849	35.935333	0.213658
407434.432710	3.266164	21.386719	-401.171875
407434.434711	3.267114	21.386719	-401.171875
407434.436712	3.266708	21.386719	-401.171875
407434.438712	3.266664	35.933304	0.242280
407435.514792	3.267124	191.894531	-12.792969
407435.516787	3.267206	191.894531	-12.792969
407435.518788	3.267002	191.894531	-12.792969
407435.522786	3.266906	35.935963	0.173955
407436.528874	3.264931	19.042969	-404.296875
407436.530875	3.267141	19.042969	-404.296875
407436.532875	3.267060	19.042969	-404.296875
407436.534874	3.266857	35.935432	0.204077
407437.576937	3.263597	196.582031	-10.156250
407437.578939	3.267329	196.582031	-10.156250
407437.580941	3.267635	196.582031	-10.156250
407437.584940	3.267225	196.582031	-10.156250
407437.586942	3.267243	35.939678	0.235031
407438.626962	3.266713	13.867187	-410.253906
407438.628963	3.267439	13.867187	-410.253906
407438.630963	3.267162	13.867187	-410.253906
407438.632962	3.267049	35.937538	0.187273
407439.675037	3.265916	192.675781	-11.035156
407439.677037	3.267106	192.675781	-11.035156
407439.679038	3.267153	192.675781	-11.035156
407439.681037	3.266753	35.934288	0.193610
407440.691053	3.265885	23.437500	-389.453125
407440.693056	3.267176	23.437500	-389.453125
407440.695056	3.266873	23.437500	-389.453125
407440.699055	3.266708	35.933792	0.237750
407441.773620	3.266828	189.843750	-10.253906
407441.775620	3.266937	189.843750	-10.253906
407441.777620	3.266623	35.932854	0.581147
407442.787648	3.265260	20.800781	-387.304687
407442.789651	3.267269	20.800781	-387.304687
407442.793649	3.266891	20.800781	-387.304687
407442.795652	3.266939	35.936325	0.213267
407443.837746	3.267289	187.402344	-8.691406
407443.839748	3.267487	187.402344	-8.691406
407443.841749	3.267187	187.402344	-8.691406
407443.843751	3.267042	35.937462	0.442230
407444.885809	3.266854	21.484375	-381.054687
407444.887810	3.267471	21.484375	-381.054687
407444.889811	3.267066	21.484375	-381.054687
407444.891810	3.266948	35.936432	0.183251
407445.934362	3.266553	185.937500	-7.910156
407445.936364	3.267148	185.937500	-7.910156
407445.938364	3.266768	185.937500	-7.910156
407445.940364	3.266721	35.933933	0.172588
407446.950368	3.266845	34.472656	-356.445312
407446.952371	3.267391	34.472656	-356.445312
407446.954371	3.266953	34.472656	-356.445312
407446.956371	3.266977	35.936752	0.254469
407447.997335	3.263753	184.179687	-5.566406
407447.999337	3.266972	184.179687	-5.566406
407448.001338	3.267097	184.179687	-5.566406
407448.003337	3.266840	184.179687	-5.566406
407448.007334	3.266734	35.934074	0.201476
407449.049381	3.267457	32.812500	-357.617187
407449.051382	3.267096	32.812500	-357.617187
407449.053384	3.267039	35.937424	0.234726
407450.095443	3.266057	181.250000	-7.324219
407450.097443	3.267329	181.250000	-7.324219
407450.099444	3.266860	181.250000	-7.324219
407450.101444	3.266770	35.934467	0.180914
407451.143501	3.264971	33.105469	-360.058594
407451.145502	3.267146	33.105469	-360.058594
407451.147502	3.267001	33.105469	-360.058594
407451.149501	3.266759	35.934349	0.194461
407452.162040	3.267446	185.937500	-5.175781
407452.164049	3.267116	185.937500	-5.175781
407452.166046	3.267010	35.937107	0.205294
407453.240620	3.265385	32.226562	-363.183594
407453.242622	3.267587	32.226562	-363.183594
407453.244623	3.267416	32.226562	-363.183594
407453.246623	3.267234	35.939571	0.177688
407454.256714	3.265645	183.691406	-7.226562
407454.258716	3.267242	183.691406	-7.226562
407454.260715	3.267040	183.691406	-7.226562
407454.262717	3.266840	35.935238	0.182137
407455.304772	3.264576	39.648437	-358.496094
407455.306774	3.264773	39.648437	-358.496094
407455.308774	3.267330	39.648437	-358.496094
407455.310774	3.267109	35.938194	0.236791
