time (s)	coil I (A)	last det (V)	int current (uC)
4051.863317	3.263980	104.394531	-28.125000
4051.865318	3.266181	35.927986	0.439584
4052.915352	3.264361	265.625000	-53.417969
4052.917352	3.266364	35.930008	0.485761
4053.949380	3.265510	104.687500	-28.613281
4053.951383	3.266463	35.931087	0.440877
4054.995446	3.265910	266.503906	-56.933594
4054.997448	3.266483	35.931313	0.482414
4056.029997	3.266525	106.738281	-23.339844
4056.032000	3.266876	35.935635	0.423309
4057.076561	3.266710	265.625000	-52.929687
4057.078565	3.266990	35.936893	0.465387
4058.108556	3.265123	109.375000	-16.699219
4058.110559	3.266422	35.930645	0.430003
4059.156626	3.265887	266.992187	-58.789062
4059.158626	3.266706	35.933765	0.474051
4060.195636	3.266115	104.882812	-29.785156
4060.197637	3.266583	35.932419	0.647338
4061.239692	3.265552	267.187500	-56.054687
4061.241692	3.266561	35.932167	0.473478
4062.272237	3.264792	108.398437	-21.777344
4062.274239	3.266574	35.932312	0.442280
4063.324286	3.266114	267.382812	-53.125000
4063.326289	3.266624	35.932861	0.471537
4064.354828	3.265950	108.496094	-20.898437
4064.356829	3.266622	35.932842	0.443287
4065.406876	3.263646	267.382812	-48.144531
4065.408879	3.266199	267.382812	-48.144531
4065.412876	3.266784	35.934624	0.487023
4066.434894	3.264506	110.644531	-15.136719
4066.436895	3.266639	35.933029	0.439066
4067.490927	3.266812	268.652344	-50.195312
4067.492927	3.266961	35.936573	0.478069
4068.520979	3.266647	109.082031	-22.167969
4068.522982	3.266746	35.934208	0.448044
4069.569498	3.266399	269.531250	-53.027344
4069.571500	3.266704	35.933739	0.907435
4070.597579	3.265753	112.109375	-17.773437
4070.599579	3.266732	35.934055	0.448099
4071.651639	3.265046	269.042969	-52.343750
4071.653641	3.266410	35.930515	0.480051
4072.686202	3.266672	110.351562	-25.292969
4072.688205	3.266683	35.933517	0.458846
4073.736766	3.265821	268.066406	-51.074219
4073.740767	3.266654	35.933197	0.479350
4074.766803	3.265656	107.617187	-35.058594
4074.768804	3.266457	35.931026	0.457010
4075.816896	3.265512	266.503906	-51.757812
4075.818897	3.266735	35.934082	0.482053
4076.844965	3.264899	107.910156	-37.207031
4076.846964	3.266393	35.930328	0.452883
4077.895019	3.265830	266.992187	-56.640625
4077.897022	3.266556	35.932117	0.476785
4078.929966	3.266405	106.347656	-42.480469
4078.931969	3.266857	35.935432	0.662268
4079.980017	3.266089	266.210937	-55.468750
4079.982020	3.266596	35.932560	0.473374
4081.012561	3.266670	104.589844	-48.925781
4081.014563	3.266745	35.934200	0.691452
4082.062594	3.266414	265.039062	-52.734375
4082.064597	3.266951	35.936459	0.475440
4083.094640	3.266756	111.035156	-33.105469
4083.096639	3.266891	35.935795	0.456181
4084.141536	3.265625	266.601562	-54.980469
4084.143537	3.266592	35.932507	0.480048
4085.174060	3.264009	107.812500	-44.335937
4085.176064	3.266239	35.928635	0.469151
4086.228127	3.266972	266.601562	-53.613281
4086.230129	3.266967	35.936638	0.642160
4087.256687	3.263892	108.789062	-42.089844
4087.258689	3.266670	108.789062	-42.089844
4087.260689	3.267159	35.938747	0.469879
4088.306735	3.265577	266.992187	-53.320312
4088.308737	3.266763	35.934395	0.474324
4089.339720	2.874198	106.738281	-49.121094
4089.341722	3.266903	35.935936	0.461188
4090.387776	2.441669	266.894531	-50.000000
4090.389779	3.266288	35.929165	0.484436
4091.422404	3.266714	108.593750	-44.140625
4091.424406	3.266785	35.934635	0.468660
4092.472471	3.266023	265.722656	-45.996094
4092.474473	3.266509	35.931602	0.592503
4093.502506	3.266470	113.281250	-29.687500
4093.504509	3.266731	35.934040	0.465627
4094.553096	3.264174	264.648437	-45.214844
4094.555097	3.266426	264.648437	-45.214844
4094.557102	3.266938	35.936317	0.499503
4095.583149	3.265691	113.183594	-29.980469
4095.585152	3.266782	35.934597	0.466468
4096.633692	3.263628	263.671875	-45.507812
4096.635691	3.266367	263.671875	-45.507812
4096.637692	3.266828	35.935112	0.499283
4097.665757	3.265765	109.863281	-41.796875
4097.667758	3.266497	35.931469	0.468141
4098.715864	3.266086	262.695312	-46.679687
4098.717866	3.266464	35.931099	0.497202
4099.747982	3.187698	114.160156	-30.175781
4099.749986	3.266685	35.933537	0.463218
4100.798986	2.857907	260.449219	-45.214844
4100.800987	3.267052	35.937576	0.692225
4101.830988	3.266222	114.062500	-32.714844
4101.832988	3.266539	35.931931	0.457552
4102.877886	3.264381	260.058594	-48.046875
4102.879888	3.266232	35.928555	0.505235
4103.911923	3.264731	110.742187	-44.726562
4103.913924	3.266496	35.931454	0.466781
4104.961934	3.266663	258.886719	-47.070312
4104.963936	3.266988	35.936867	0.501450
4105.996417	3.266248	108.789062	-53.125000
4105.998419	3.266784	35.934624	0.464671
4107.044413	3.266496	259.667969	-50.097656
4107.046415	3.266780	35.934582	0.504103
4108.078468	3.266051	110.937500	-47.851562
4108.080472	3.266782	35.934597	0.469520
4109.124488	3.266586	260.058594	-53.808594
4109.126490	3.266902	35.935928	0.872636
4110.160520	3.265691	108.789062	-56.347656
4110.162521	3.266441	35.930851	0.475262
4111.206569	3.265987	258.593750	-48.632812
4111.208572	3.266427	35.930698	0.505021
4112.240643	3.264009	110.742187	-53.320312
4112.242644	3.266380	110.742187	-53.320312
4112.244644	3.266821	35.935032	0.474232
4113.288721	3.266084	258.593750	-48.242187
4113.290723	3.266886	35.935753	0.510809
4114.320761	3.264592	113.867187	-43.359375
4114.322763	3.266101	35.927109	0.464301
4115.371326	3.266832	259.667969	-51.660156
4115.373329	3.266927	35.936203	0.586606
4116.405327	3.266489	115.820312	-38.281250
4116.407328	3.266684	35.933525	0.470563
4117.450346	3.266423	259.765625	-49.218750
4117.454345	3.267221	35.939438	0.503561
4118.484877	3.266357	116.406250	-37.890625
4118.486879	3.266853	35.935387	0.466052
4119.532917	3.266066	258.789062	-45.019531
4119.534924	3.266755	35.934307	0.510781
4120.568976	3.266358	116.601562	-36.816406
4120.570979	3.266750	35.934254	0.483291
4121.617017	3.266651	259.667969	-45.605469
4121.619018	3.266937	35.936310	0.503854
4122.649546	3.265682	110.644531	-55.566406
4122.653546	3.266918	35.936096	0.476641
4123.697641	3.265929	260.253906	-45.312500
4123.699643	3.266910	35.936008	0.502688
4124.730603	3.266658	111.425781	-55.175781
4124.732605	3.266659	35.933250	0.909114
4125.780652	3.265763	260.644531	-42.968750
4125.784653	3.266573	35.932304	0.510614
4126.812675	3.266217	117.285156	-41.308594
4126.814677	3.266638	35.933022	0.791719
4127.861666	3.266179	259.082031	-40.917969
4127.863666	3.266544	35.931984	0.893081
4128.891673	3.264021	113.867187	-54.199219
4128.893674	3.266317	35.929485	0.482835
4129.943716	3.263730	259.179687	-44.042969
4129.945719	3.266178	259.179687	-44.042969
4129.947719	3.266640	35.933041	0.508729
4130.975803	3.266479	116.503906	-48.828125
4130.977805	3.266830	35.935131	0.483024
4132.026347	3.266050	258.886719	-44.433594
4132.028351	3.266613	35.932747	0.504490
4133.058373	3.265519	113.183594	-61.230469
4133.060376	3.266638	35.933022	0.495123
4134.108487	3.265433	258.593750	-47.265625
4134.110488	3.266826	35.935085	0.507887
4135.138570	3.266620	111.621094	-67.089844
4135.140572	3.267019	35.937202	0.789532
4136.190568	3.266033	258.203125	-49.218750
4136.192567	3.266796	35.934757	0.505783
4137.221528	3.265469	111.132812	-70.312500
4137.223531	3.266466	35.931126	0.490175
4138.271528	3.264972	257.128906	-47.070312
4138.273530	3.266416	35.930573	0.507530
4139.303592	3.266435	118.164062	-50.390625
4139.305595	3.266819	35.935005	0.488782
4140.356598	3.266343	257.617187	-47.656250
4140.358600	3.266617	35.932789	0.507527
4141.385140	3.265923	112.304687	-66.308594
4141.387143	3.266372	35.930096	0.621565
4142.437174	3.265703	255.664062	-43.359375
4142.439177	3.266627	35.932899	0.514142
4143.465262	3.265796	112.109375	-67.773437
4143.467264	3.266521	35.931725	0.487727
4144.519307	3.266497	255.761719	-42.773437
4144.521308	3.266693	35.933624	0.511331
4145.547368	3.265415	116.699219	-54.980469
4145.549368	3.266863	35.935493	0.499554
4146.599404	3.263349	256.054687	-41.210937
4146.601406	3.266432	256.054687	-41.210937
4146.605404	3.267041	35.937450	0.513150
4147.629440	3.266018	115.527344	-58.398437
4147.631441	3.266737	35.934101	0.499800
4148.681471	3.265634	255.566406	-40.429687
4148.683473	3.266405	35.930450	0.516746
4149.709499	3.265128	119.238281	-47.753906
4149.713499	3.266588	35.932472	0.490167
4150.764084	3.265772	253.515625	-37.109375
4150.766084	3.266459	35.931053	0.520091
4151.792140	3.264426	115.820312	-57.519531
4151.794139	3.266197	35.928165	0.494896
4152.842150	3.264260	254.589844	-40.332031
4152.844153	3.266260	35.928856	0.514914
4153.876174	3.266241	118.359375	-52.539062
4153.878177	3.266584	35.932426	0.495996
4154.928702	3.266404	252.929687	-41.113281
4154.930706	3.266755	35.934307	0.523857
4155.959288	3.266387	115.625000	-62.988281
4155.961287	3.266999	35.936993	0.504325
4157.005335	3.265107	253.906250	-43.945312
4157.009334	3.266845	35.935291	0.518780
4158.035853	3.263500	120.019531	-49.609375
4158.037853	3.265975	120.019531	-49.609375
4158.039854	3.266475	35.931221	0.480650
4159.089856	3.265585	251.269531	-43.359375
4159.091856	3.266379	35.930168	0.521946
4160.122392	3.264843	119.335937	-52.832031
4160.124392	3.266214	35.928349	0.486809
4161.172433	3.265151	250.292969	-42.773437
4161.174433	3.266430	35.930733	0.529770
4162.202498	3.265929	117.675781	-58.593750
4162.204499	3.266755	35.934307	0.490069
4163.253048	3.266677	250.292969	-45.312500
4163.255050	3.266794	35.934731	0.518669
4164.285595	3.263143	119.042969	-58.398437
4164.287597	3.266329	119.042969	-58.398437
4164.289597	3.266868	35.935547	0.489712
4165.334172	3.266295	250.878906	-45.507812
4165.336175	3.266549	35.932037	0.527608
4166.372771	3.266732	113.867187	-77.343750
4166.374773	3.266924	35.936165	0.498219
4167.414778	3.266734	252.148437	-44.824219
4167.416780	3.267012	35.937134	0.530193
4168.451356	3.264419	117.871094	-69.238281
4168.453356	3.266168	35.927845	0.501229
4169.493384	3.262924	253.320312	-45.996094
4169.495386	3.266114	253.320312	-45.996094
4169.497387	3.266696	35.933659	0.533561
4170.535458	3.266130	120.703125	-64.550781
4170.537461	3.266687	35.933563	0.503274
4171.580035	3.266587	254.882812	-43.750000
4171.582037	3.266664	35.933304	0.547497
4172.616639	3.263724	118.652344	-73.242187
4172.618640	3.266185	118.652344	-73.242187
4172.620640	3.266671	35.933384	0.510179
4173.658686	3.266859	255.273437	-43.164062
4173.660689	3.267099	35.938091	0.541977
4174.699245	3.266895	123.144531	-61.230469
4174.701247	3.267252	35.939774	0.512678
4175.741786	3.266273	256.054687	-41.992187
4175.743789	3.266454	35.931000	0.545757
4176.782313	3.266580	120.800781	-68.652344
4176.784314	3.266691	35.933605	0.555968
4177.822302	3.263860	255.371094	-38.769531
4177.824303	3.266494	255.371094	-38.769531
4177.826305	3.266975	35.936726	0.548573
4178.862358	3.265850	121.289062	-68.457031
4178.864361	3.266364	35.930000	0.555156
4179.902410	3.263903	256.054687	-37.988281
4179.904413	3.266275	256.054687	-37.988281
4179.908411	3.266833	35.935165	0.541867
4180.944447	3.264517	119.238281	-81.054687
4180.946446	3.266640	35.933041	0.531963
4181.988416	3.264092	254.589844	-36.523437
4181.990418	3.266129	35.927418	0.546383
4183.028502	3.264896	122.656250	-71.777344
4183.030503	3.266265	35.928917	0.531507
4184.068547	3.265667	256.542969	-37.988281
4184.070548	3.266641	35.933056	0.548053
4185.106571	3.264511	124.511719	-70.703125
4185.108572	3.266565	35.932213	0.524828
4186.148627	3.265624	257.226562	-40.625000
4186.150627	3.266624	35.932861	0.540717
4187.191223	3.265790	121.777344	-80.761719
4187.193226	3.266581	35.932392	0.530767
4188.231753	3.265255	255.175781	-37.890625
4188.233756	3.266661	35.933266	0.539360
4189.271774	3.265634	122.070312	-82.128906
4189.273777	3.266562	35.932178	0.528847
4190.314275	3.266339	255.859375	-42.285156
4190.316278	3.266731	35.934040	0.547603
4191.354797	3.266735	125.195312	-73.828125
4191.356800	3.266985	35.936840	0.526760
4192.393349	3.264379	254.882812	-40.332031
4192.395350	3.266409	35.930496	0.543080
4193.437419	3.266108	122.167969	-84.667969
4193.439421	3.266654	35.933197	0.675044
4194.477430	3.266408	255.371094	-43.164062
4194.479433	3.266513	35.931648	0.538816
4195.516016	3.264654	126.367187	-73.437500
4195.518019	3.266265	35.928917	0.532038
4196.560605	3.266771	253.515625	-38.964844
4196.562607	3.267011	35.937122	0.548453
4197.598697	3.266108	127.636719	-71.093750
4197.600700	3.266627	35.932899	0.524328
4198.641290	3.266379	255.468750	-42.187500
4198.643291	3.266683	35.933510	0.542230
4199.681876	3.265514	123.730469	-83.691406
4199.683878	3.266569	35.932259	0.541783
4200.721974	3.266160	255.273437	-41.113281
4200.723978	3.266679	35.933464	0.725592
4201.762941	3.265434	126.562500	-76.464844
4201.764944	3.266461	35.931068	0.537528
4202.804965	3.265730	253.613281	-35.839844
4202.806967	3.266540	35.931942	0.557272
4203.843052	3.263303	124.902344	-80.273437
4203.845054	3.266170	124.902344	-80.273437
4203.847053	3.266763	35.934395	0.530210
4204.883073	3.264174	254.101562	-36.425781
4204.887072	3.266507	35.931576	0.552677
4205.929135	3.266679	127.441406	-73.632812
4205.931136	3.266756	35.934315	0.669320
4206.965653	3.264884	254.492187	-37.988281
4206.967656	3.266455	35.931011	0.547533
4208.008610	3.265846	128.320312	-70.507812
4208.010613	3.266964	35.936607	0.530841
4209.055167	3.267083	252.343750	-35.156250
4209.057169	3.267088	35.937965	0.567876
4210.091736	3.265816	123.535156	-84.375000
4210.093736	3.266802	35.934822	0.539826
4211.131785	3.266330	251.660156	-36.816406
4211.135784	3.266906	35.935970	0.673201
4212.172340	3.266222	128.320312	-72.558594
4212.174343	3.266702	35.933720	0.531279
4213.212876	3.266737	250.390625	-37.011719
4213.216875	3.266936	35.936298	0.561355
4214.253422	3.265315	128.222656	-74.804687
4214.255424	3.266623	35.932854	0.528504
4215.289952	3.265127	250.000000	-38.574219
4215.291953	3.266696	35.933659	0.552561
4216.342017	3.266608	126.464844	-82.128906
4216.344022	3.266682	35.933498	0.734101
4217.374631	3.264714	248.144531	-35.937500
4217.378633	3.266583	35.932419	0.566228
4218.420655	3.265203	124.902344	-86.132812
4218.422656	3.266920	35.936123	0.538550
4219.454673	3.263248	247.363281	-36.035156
4219.456675	3.266296	247.363281	-36.035156
4219.458675	3.266820	35.935024	0.562789
4220.499177	3.265954	130.078125	-75.000000
4220.501177	3.266500	35.931496	0.529689
4221.536162	3.264403	248.730469	-40.527344
4221.538163	3.266223	35.928459	0.559638
4222.584270	3.266291	126.953125	-83.984375
4222.588279	3.266694	35.933632	0.531525
4223.622269	3.266641	246.484375	-35.156250
4223.624271	3.266798	35.934776	0.566735
4224.666329	3.265928	126.757812	-86.132812
4224.668329	3.266894	35.935837	0.542065
4225.702402	3.264028	247.363281	-36.328125
4225.704402	3.266314	35.929451	0.568503
4226.746377	3.266040	130.078125	-76.757812
4226.748378	3.266538	35.931923	0.694358
4227.784408	3.265774	247.558594	-36.816406
4227.786408	3.266649	35.933136	0.568303
4228.826955	3.264768	129.296875	-80.468750
4228.828958	3.266528	35.931808	0.542038
4229.865489	3.265057	246.191406	-32.714844
4229.867491	3.266442	35.930859	0.559033
4230.909544	3.264645	127.148437	-87.011719
4230.913545	3.267191	35.939102	0.547408
4231.947592	3.263985	247.851562	-34.179687
4231.949594	3.266151	35.927658	0.566505
4232.989651	3.263703	127.832031	-85.156250
4232.991654	3.266036	127.832031	-85.156250
4232.993653	3.266457	35.931026	0.545404
4234.029755	3.265754	247.558594	-32.031250
4234.031755	3.266800	35.934803	0.569015
4235.071810	3.264311	130.664062	-79.785156
4235.073809	3.266449	35.930939	0.547621
4236.112357	3.265228	247.460937	-31.152344
4236.114358	3.266620	35.932816	0.571635
4237.154404	3.265999	129.296875	-85.839844
4237.156406	3.266758	35.934341	0.553109
4238.194461	3.264004	246.777344	-30.273437
4238.196464	3.266179	35.927971	0.568739
4239.236463	3.264680	126.855469	-95.312500
4239.238467	3.266298	35.929283	0.546191
4240.280480	3.266420	247.363281	-31.152344
4240.282482	3.266676	35.933437	0.571507
4241.318512	3.265257	129.492187	-90.234375
4241.320513	3.266360	35.929962	0.557960
4242.358583	3.263462	246.875000	-32.226562
4242.360585	3.266296	246.875000	-32.226562
4242.362586	3.266757	35.934326	0.568615
4243.398678	3.265701	128.515625	-95.410156
4243.400681	3.266817	35.934990	0.552246
4244.438771	3.265219	247.363281	-34.375000
4244.440773	3.266629	35.932922	0.565077
4245.480897	3.263987	129.394531	-94.335937
4245.482898	3.266421	129.394531	-94.335937
4245.484898	3.266815	35.934963	0.550998
4246.520914	3.264156	246.777344	-34.667969
4246.522916	3.266278	35.929058	0.569158
4247.565013	3.266005	128.125000	-99.218750
4247.567015	3.266530	35.931831	0.675175
4248.603051	3.265815	246.875000	-37.109375
4248.605052	3.266491	35.931396	0.564301
4249.646007	3.266639	131.347656	-91.992187
4249.648010	3.266940	35.936344	0.551194
4250.686088	3.265451	244.824219	-32.421875
4250.688088	3.266544	35.931984	0.574371
4251.726118	3.264039	130.859375	-94.140625
4251.730117	3.266613	35.932747	0.552592
4252.768155	3.266965	246.679687	-36.425781
4252.770155	3.267180	35.938976	0.567593
4253.810704	3.265660	126.855469	-105.175781
4253.812706	3.266409	35.930504	0.563821
4254.850709	3.266238	244.628906	-31.347656
4254.852710	3.266783	35.934608	0.666078
4255.888771	3.264519	129.492187	-100.097656
4255.892772	3.267010	35.937107	0.554421
4256.930808	3.263068	244.628906	-30.664062
4256.932811	3.265937	244.628906	-30.664062
4256.934811	3.266453	35.930984	0.568709
4257.974840	3.266283	127.636719	-104.394531
4257.976842	3.266562	35.932186	0.553698
4259.014859	3.265521	244.042969	-29.003906
4259.016861	3.266496	35.931461	0.581861
4260.054908	3.263596	130.566406	-95.898437
4260.056910	3.266214	130.566406	-95.898437
4260.058909	3.266683	35.933510	0.563019
4261.094967	3.265167	243.457031	-28.027344
4261.096970	3.266218	35.928402	0.574876
4262.139073	3.266236	127.636719	-103.222656
4262.141077	3.266570	35.932270	0.572091
4263.177113	3.265779	243.554687	-29.296875
4263.179115	3.266659	35.933250	0.576789
4264.219129	3.265627	130.078125	-96.484375
4264.221130	3.266645	35.933098	0.562397
4265.259199	3.265489	241.992187	-28.320312
4265.261201	3.266449	35.930939	0.579585
4266.301212	3.266459	135.253906	-83.398437
4266.303213	3.266617	35.932789	0.561199
4267.338156	3.264401	241.406250	-28.613281
4267.340160	3.266309	35.929405	0.580488
4268.380227	3.264506	131.835937	-93.847656
4268.382229	3.266187	35.928055	0.560507
4269.422288	3.266639	240.820312	-29.492187
4269.424293	3.266875	35.935627	0.581308
4270.462356	3.264229	132.910156	-91.992187
4270.464358	3.266208	35.928288	0.559251
4271.502408	3.265966	240.917969	-31.250000
4271.504410	3.266670	35.933369	0.582514
4272.548466	3.266580	133.398437	-93.066406
4272.550467	3.266980	35.936779	0.562827
4273.585052	3.264778	239.648437	-30.859375
4273.587054	3.266281	35.929096	0.583555
4274.627122	3.265719	132.714844	-95.117187
4274.629124	3.266832	35.935158	0.562466
4275.663160	3.264645	240.527344	-34.082031
4275.665162	3.266293	35.929218	0.572704
4276.709766	3.266140	134.863281	-91.308594
4276.711768	3.266874	35.935616	0.561317
4277.748707	3.265668	237.695312	-28.710937
4277.750708	3.266917	35.936089	0.579291
4278.792728	3.266472	136.328125	-89.941406
4278.794729	3.266981	35.936787	0.857644
4279.828778	2.534294	238.769531	-30.859375
4279.830780	3.266109	35.927200	0.586644
4280.870833	3.264837	134.667969	-93.847656
4280.872836	3.266335	35.929680	0.553789
4281.908833	3.264569	239.257812	-31.054687
4281.910834	3.266700	35.933704	0.578974
4282.956895	3.266112	133.105469	-98.828125
4282.958897	3.266857	35.935432	0.567581
4283.992981	3.265292	238.671875	-29.589844
4283.994985	3.266447	35.930920	0.585395
4285.039004	3.266445	134.570312	-95.312500
4285.041006	3.266533	35.931858	0.566252
4286.075520	3.264946	238.476562	-27.734375
4286.079519	3.266928	35.936211	0.587497
4287.121603	3.266658	133.984375	-98.046875
4287.123606	3.266776	35.934536	0.568050
4288.157737	3.266257	240.820312	-31.738281
4288.159738	3.266849	35.935333	0.583895
4289.197766	3.265634	138.476562	-87.890625
4289.199768	3.266591	35.932495	0.561303
4290.238709	3.265879	239.160156	-26.464844
4290.240712	3.266721	35.933926	0.582229
4291.280771	3.265763	136.914062	-94.042969
4291.284770	3.266690	35.933586	0.570339
4292.321324	3.265925	240.625000	-28.613281
4292.323327	3.265933	35.925266	0.633173
4293.362306	3.264556	135.644531	-98.828125
4293.366306	3.266893	35.935822	0.569543
4294.404362	3.266158	238.769531	-25.000000
4294.408362	3.266961	35.936565	0.606757
4295.444429	3.265656	137.988281	-95.800781
4295.448430	3.266857	35.935432	0.565052
4296.485032	3.266609	240.039062	-27.832031
4296.487032	3.266939	35.936325	0.578304
4297.527582	3.266669	131.835937	-113.476562
4297.529585	3.266991	35.936901	0.987795
4298.565585	3.265827	240.429687	-30.175781
4298.567587	3.266468	35.931152	0.572967
4299.610166	3.266492	134.667969	-108.203125
4299.614164	3.267267	35.939941	0.620158
4300.650217	3.266539	236.425781	-24.804687
4300.652219	3.266744	35.934181	0.582289
4301.690305	3.265931	139.941406	-96.386719
4301.692307	3.266643	35.933075	0.572104
4302.729270	3.264021	238.378906	-29.101562
4302.731270	3.266177	35.927952	0.580159
4303.771307	3.262999	135.937500	-107.812500
4303.773307	3.266232	135.937500	-107.812500
4303.775309	3.266843	35.935272	0.577312
4304.815308	3.266772	237.988281	-29.101562
4304.817311	3.266966	35.936626	0.724318
4305.853853	3.263762	134.570312	-111.914062
4305.855850	3.266309	134.570312	-111.914062
4305.857853	3.266729	35.934021	0.581165
4306.893915	3.265584	236.718750	-27.539062
4306.895918	3.266428	35.930710	0.585946
4307.938002	3.266169	135.742187	-109.863281
4307.940009	3.266221	35.928429	0.698798
4308.976086	3.265617	236.035156	-25.390625
4308.978086	3.266521	35.931736	0.576109
4310.018128	3.265482	137.695312	-105.957031
4310.020129	3.266868	35.935547	0.577020
4311.060153	3.267017	236.230469	-26.855469
4311.062157	3.267212	35.939331	0.585146
4312.100200	2.828413	134.960937	-112.207031
4312.102202	3.266757	35.934326	0.575817
4313.138313	3.262859	236.035156	-24.609375
4313.140316	3.266053	236.035156	-24.609375
4313.142317	3.266626	35.932888	0.590308
4314.182361	3.266508	139.648437	-100.683594
4314.184362	3.266741	35.934147	0.578961
4315.223009	3.266703	236.914062	-25.781250
4315.225010	3.267126	35.938381	0.586468
4316.265557	3.266004	135.058594	-111.523437
4316.267565	3.266553	35.932083	0.650818
4317.303620	3.265506	235.058594	-22.851562
4317.307620	3.266807	35.934879	0.594656
4318.345637	3.266218	137.207031	-105.859375
4318.347640	3.266938	35.936317	0.582191
4319.383652	3.265996	234.179687	-23.437500
4319.385654	3.266887	35.935760	0.589691
4320.425685	3.263192	134.082031	-112.792969
4320.427688	3.266192	134.082031	-112.792969
4320.429686	3.266762	35.934383	0.573829
4321.465741	3.264960	232.812500	-22.949219
4321.467743	3.266605	35.932655	0.597351
4322.509795	3.266314	141.113281	-96.289062
4322.511796	3.266592	35.932514	0.574305
4323.548763	3.265177	232.421875	-24.316406
4323.550765	3.266471	35.931187	0.595378
4324.592824	3.266007	134.570312	-114.062500
4324.594825	3.266611	35.932720	0.698546
4325.628898	3.266147	233.789062	-28.320312
4325.630900	3.266490	35.931389	0.586088
4326.673868	3.266896	140.527344	-100.390625
4326.675867	3.267176	35.938934	0.571842
4327.710449	3.265666	232.617187	-27.636719
4327.712450	3.266459	35.931053	0.586354
4328.755403	3.265475	133.398437	-119.140625
4328.757406	3.266783	35.934616	0.572858
4329.795384	3.266067	230.078125	-24.023437
4329.797387	3.266525	35.931770	0.775301
4330.837411	3.264840	137.402344	-110.449219
4330.839413	3.266314	35.929451	0.583033
4331.873459	3.264264	231.152344	-27.148437
4331.875460	3.266301	35.929314	0.594488
4332.922017	3.266691	141.601562	-101.367187
4332.924019	3.266697	35.933670	0.578102
4333.954561	3.264063	230.664062	-25.878906
4333.956564	3.266475	230.664062	-25.878906
4333.958562	3.266848	35.935326	0.593807
4335.000593	3.265244	138.574219	-109.179687
4335.002597	3.266654	35.933197	0.578187
4336.038670	3.264736	229.101562	-22.949219
4336.040672	3.266513	35.931641	0.601252
4337.082712	3.266247	135.937500	-116.308594
4337.084715	3.266287	35.929157	0.775876
4338.121185	3.265521	229.882812	-24.121094
4338.123184	3.266416	35.930573	0.600634
4339.165216	3.265527	135.351562	-118.359375
4339.167219	3.266414	35.930557	0.591412
4340.205265	3.266663	228.125000	-20.312500
4340.207266	3.266870	35.935566	0.596348
4341.249288	3.266612	134.667969	-120.898437
4341.251290	3.266757	35.934326	0.584467
4342.283356	3.265419	230.859375	-23.730469
4342.285358	3.266776	35.934536	0.596014
4343.327926	3.266228	141.308594	-105.273437
4343.329928	3.266718	35.933899	0.698484
4344.366496	2.526330	231.152344	-21.582031
4344.368497	3.266411	35.930523	0.603686
4345.408566	3.265776	141.210937	-107.031250
4345.410568	3.266679	35.933472	0.583863
4346.448600	3.265238	231.835937	-23.339844
4346.450604	3.266367	35.930042	0.600391
4347.490614	3.265646	140.625000	-110.742187
4347.492617	3.266840	35.935238	0.588748
4348.530601	3.263901	230.468750	-19.335937
4348.532605	3.266439	230.468750	-19.335937
4348.534605	3.266880	35.935680	0.598722
4349.572693	3.265521	140.136719	-114.648437
4349.576691	3.266722	35.933941	0.595327
4350.614720	3.265821	229.296875	-18.457031
4350.616724	3.266617	35.932781	0.604797
4351.652748	2.373972	142.089844	-111.230469
4351.654750	3.266495	142.089844	-111.230469
4351.656752	3.266939	35.936325	0.588896
4352.692849	3.264229	230.273437	-20.996094
4352.694852	3.266292	35.929211	0.594914
4353.736882	3.266161	146.191406	-103.710937
4353.738883	3.266954	35.936493	0.578207
4354.774928	3.264124	230.078125	-22.070312
4354.776930	3.266649	230.078125	-22.070312
4354.778930	3.267143	35.938568	0.597583
4355.817025	3.265593	143.066406	-113.281250
4355.819027	3.266948	35.936424	0.588956
4356.859089	3.266364	229.199219	-21.484375
4356.861091	3.266957	35.936531	0.724408
4357.901177	3.266211	141.601562	-117.773437
4357.903178	3.266931	35.936237	0.596990
4358.943240	3.266497	227.734375	-20.117187
4358.945242	3.266657	35.933228	0.602437
4359.979287	3.263180	143.945312	-112.988281
4359.981288	3.266158	143.945312	-112.988281
4359.983289	3.266641	35.933056	0.586394
4361.023353	3.266479	228.906250	-22.070312
4361.025356	3.266599	35.932587	0.597116
4362.063373	3.266412	144.531250	-112.597656
4362.065374	3.267016	35.937180	0.586727
4363.101924	3.264436	229.492187	-24.023437
4363.103925	3.266248	35.928722	0.591595
4364.146466	3.266289	137.890625	-128.125000
4364.148468	3.266696	35.933659	0.586254
4365.184512	3.265612	228.417969	-21.093750
4365.186514	3.266499	35.931488	0.603688
4366.228581	3.266034	138.378906	-127.539062
4366.230581	3.266567	35.932240	0.659045
4367.268599	3.265610	228.027344	-19.824219
4367.270600	3.266388	35.930264	0.607291
4368.310712	3.266534	143.750000	-114.160156
4368.312714	3.266968	35.936653	0.832385
4369.349263	3.266257	226.660156	-17.382812
4369.351265	3.266790	35.934685	0.695302
